 #specbin	  lambda [nm]	  lampspec	  darkspec	  acidspec	  alkaspec	  absorbacid	  absorbalka
0.000000 	339.320007 	0.000000 	0.000000 	0.000000 	0.000000 	-1.#IND00 	-1.#IND00 	
1.000000 	339.690002 	20.880585 	82.222916 	2.682198 	1.256976 	2.052183 	2.810111 	
2.000000 	340.070007 	21.204958 	83.301041 	2.749527 	1.287545 	2.042806 	2.801497 	
3.000000 	340.450012 	21.391708 	84.438538 	2.747823 	1.247872 	2.052195 	2.841563 	
4.000000 	340.829987 	21.360708 	85.688545 	2.716572 	1.229936 	2.062182 	2.854591 	
5.000000 	341.209991 	21.458874 	87.728127 	2.693464 	1.190352 	2.075310 	2.891889 	
6.000000 	341.589996 	21.008625 	88.903122 	2.691194 	1.259374 	2.054948 	2.814318 	
7.000000 	341.959991 	20.894667 	89.720833 	2.639394 	1.205797 	2.068945 	2.852353 	
8.000000 	342.339996 	20.859667 	90.527084 	2.658144 	1.209330 	2.060189 	2.847751 	
9.000000 	342.720001 	20.921875 	91.228127 	2.696306 	1.177311 	2.048913 	2.877562 	
10.000000 	343.100006 	20.750668 	92.120834 	2.603599 	1.070472 	2.075684 	2.964479 	
11.000000 	343.480011 	20.652292 	92.723961 	2.584565 	1.084737 	2.078269 	2.946489 	
12.000000 	343.859985 	20.580791 	93.073959 	2.560131 	1.104302 	2.084300 	2.925145 	
13.000000 	344.230011 	20.534082 	92.985420 	2.701515 	1.161322 	2.028273 	2.872527 	
14.000000 	344.609985 	20.571251 	92.856247 	2.742045 	1.230163 	2.015191 	2.816748 	
15.000000 	344.989990 	20.555126 	92.846878 	2.726420 	1.203125 	2.020121 	2.838188 	
16.000000 	345.369995 	20.477291 	92.842705 	2.640247 	1.114901 	2.048444 	2.910551 	
17.000000 	345.750000 	20.428541 	92.773956 	2.559564 	1.074954 	2.077096 	2.944655 	
18.000000 	346.130005 	20.369793 	92.667709 	2.424905 	1.110554 	2.128261 	2.909194 	
19.000000 	346.500000 	20.411875 	92.509377 	2.511081 	1.140082 	2.095404 	2.885016 	
20.000000 	346.880005 	20.477001 	92.250000 	2.646024 	1.213045 	2.046244 	2.826169 	
21.000000 	347.260010 	20.523874 	92.403122 	2.624716 	1.137636 	2.056616 	2.892636 	
22.000000 	347.640015 	20.455791 	92.592705 	2.558429 	1.099684 	2.078873 	2.923243 	
23.000000 	348.019989 	20.584002 	94.081253 	2.578978 	1.030707 	2.077121 	2.994269 	
24.000000 	348.390015 	20.357834 	93.460419 	2.777652 	1.303171 	1.991860 	2.748666 	
25.000000 	348.769989 	22.074249 	92.681252 	3.591478 	2.217663 	1.815848 	2.297958 	
26.000000 	349.149994 	22.590834 	92.197914 	4.041290 	2.774911 	1.720980 	2.096926 	
27.000000 	349.529999 	22.882000 	91.931252 	4.129546 	2.924728 	1.712183 	2.057149 	
28.000000 	349.899994 	22.993250 	92.043747 	4.180114 	2.995924 	1.704862 	2.037948 	
29.000000 	350.279999 	22.944332 	92.235420 	4.098106 	2.987409 	1.722546 	2.038664 	
30.000000 	350.660004 	22.869541 	92.111458 	4.160699 	3.006476 	1.704123 	2.029037 	
31.000000 	351.040009 	22.935833 	92.516663 	4.144697 	2.939312 	1.710871 	2.054525 	
32.000000 	351.420013 	22.751917 	92.389587 	4.102462 	2.961504 	1.713062 	2.038952 	
33.000000 	351.790009 	22.865791 	92.223961 	4.146496 	2.932563 	1.707378 	2.053765 	
34.000000 	352.170013 	23.027416 	92.145836 	4.188825 	3.003622 	1.704265 	2.036867 	
35.000000 	352.549988 	23.015709 	92.188538 	4.202937 	2.976676 	1.700394 	2.045370 	
36.000000 	352.929993 	23.145624 	92.703125 	4.192898 	3.038723 	1.708413 	2.030368 	
37.000000 	353.299988 	22.980875 	93.015625 	4.249148 	3.064810 	1.687944 	2.014677 	
38.000000 	353.679993 	22.864540 	92.930206 	4.233995 	3.049683 	1.686441 	2.014550 	
39.000000 	354.059998 	22.887583 	92.666664 	4.283333 	3.074095 	1.675863 	2.007584 	
40.000000 	354.429993 	23.010332 	92.516670 	4.271968 	3.100181 	1.683869 	2.004483 	
41.000000 	354.809998 	23.276667 	93.158333 	4.289394 	3.155254 	1.691306 	1.998382 	
42.000000 	355.190002 	22.824417 	93.070831 	4.227462 	3.046558 	1.686229 	2.013819 	
43.000000 	355.570007 	22.940290 	92.817711 	4.256155 	3.064357 	1.684529 	2.013057 	
44.000000 	355.940002 	23.075918 	92.883331 	4.336553 	3.153624 	1.671710 	1.990237 	
45.000000 	356.320007 	23.048292 	93.261459 	4.356723 	3.102129 	1.665872 	2.005503 	
46.000000 	356.700012 	22.875708 	93.076042 	4.243275 	3.066349 	1.684740 	2.009588 	
47.000000 	357.079987 	23.044624 	92.928123 	4.261080 	3.144701 	1.687910 	1.991714 	
48.000000 	357.450012 	23.104792 	92.905205 	4.280588 	3.167075 	1.685950 	1.987231 	
49.000000 	357.829987 	23.230959 	92.844795 	4.384754 	3.223143 	1.667352 	1.975129 	
50.000000 	358.209991 	23.272125 	92.884377 	4.470739 	3.244430 	1.649703 	1.970317 	
51.000000 	358.579987 	23.255167 	93.183334 	4.478599 	3.262319 	1.647217 	1.964089 	
52.000000 	358.959991 	23.137249 	93.218750 	4.375567 	3.177444 	1.665408 	1.985366 	
53.000000 	359.339996 	23.111458 	93.376038 	4.308617 	3.141893 	1.679711 	1.995503 	
54.000000 	359.709991 	23.092041 	93.248962 	4.283428 	3.132019 	1.684734 	1.997810 	
55.000000 	360.089996 	23.112583 	93.391663 	4.289583 	3.106703 	1.684188 	2.006815 	
56.000000 	360.470001 	23.851501 	95.918747 	4.652273 	3.416034 	1.634491 	1.943367 	
57.000000 	360.850006 	22.410748 	95.212502 	4.384090 	3.220107 	1.631559 	1.940126 	
58.000000 	361.220001 	22.675085 	94.035416 	4.352085 	3.156432 	1.650612 	1.971824 	
59.000000 	361.600006 	23.108707 	93.744789 	4.405777 	3.241622 	1.657293 	1.964136 	
60.000000 	361.980011 	23.265999 	94.356247 	4.419886 	3.298097 	1.660879 	1.953647 	
61.000000 	362.350006 	23.001749 	94.175003 	4.410227 	3.218477 	1.651644 	1.966662 	
62.000000 	362.730011 	23.023085 	93.991669 	4.307765 	3.168116 	1.676078 	1.983360 	
63.000000 	363.109985 	23.111668 	93.927086 	4.309850 	3.204983 	1.679434 	1.975631 	
64.000000 	363.480011 	23.137625 	93.753128 	4.382671 	3.232202 	1.663802 	1.968297 	
65.000000 	363.859985 	23.258917 	93.608330 	4.455303 	3.228623 	1.652593 	1.974633 	
66.000000 	364.239990 	23.424707 	93.707291 	4.592141 	3.395970 	1.629445 	1.931202 	
67.000000 	364.609985 	23.360250 	93.831253 	4.592045 	3.428532 	1.626710 	1.918903 	
68.000000 	364.989990 	23.460293 	94.048958 	4.630020 	3.428216 	1.622748 	1.923270 	
69.000000 	365.359985 	23.344625 	93.921875 	4.541761 	3.378668 	1.637052 	1.932885 	
70.000000 	365.739990 	23.378166 	93.958336 	4.494508 	3.380254 	1.648946 	1.933852 	
71.000000 	366.119995 	23.282917 	94.095833 	4.502462 	3.325362 	1.643095 	1.946141 	
72.000000 	366.489990 	23.291374 	93.965622 	4.460511 	3.291983 	1.652820 	1.956593 	
73.000000 	366.869995 	23.362333 	93.847916 	4.533333 	3.341757 	1.639668 	1.944628 	
74.000000 	367.250000 	23.500168 	94.033333 	4.637123 	3.404710 	1.622913 	1.931848 	
75.000000 	367.619995 	23.503250 	93.906250 	4.694887 	3.470380 	1.610665 	1.912875 	
76.000000 	368.000000 	23.437332 	94.091667 	4.507764 	3.367028 	1.648529 	1.940300 	
77.000000 	368.369995 	23.356792 	94.317711 	4.469792 	3.312182 	1.653546 	1.953280 	
78.000000 	368.750000 	23.423626 	94.346878 	4.551989 	3.375952 	1.638181 	1.937068 	
79.000000 	369.130005 	23.539417 	94.520836 	4.623485 	3.505253 	1.627528 	1.904414 	
80.000000 	369.500000 	23.405916 	94.758331 	4.634849 	3.450362 	1.619385 	1.914510 	
81.000000 	369.880005 	23.273792 	94.436455 	4.588542 	3.357564 	1.623765 	1.936112 	
82.000000 	370.260010 	23.448917 	94.214584 	4.584280 	3.376178 	1.632191 	1.938080 	
83.000000 	370.630005 	23.448416 	94.339584 	4.591665 	3.489763 	1.630560 	1.904969 	
84.000000 	371.010010 	23.446459 	94.369789 	4.607481 	3.485100 	1.627038 	1.906223 	
85.000000 	371.380005 	23.478001 	94.256248 	4.596591 	3.560055 	1.630749 	1.886288 	
86.000000 	371.760010 	23.476126 	94.521873 	4.523580 	3.445516 	1.646680 	1.918910 	
87.000000 	372.130005 	23.402416 	94.445831 	4.573485 	3.492754 	1.632564 	1.902149 	
88.000000 	372.510010 	23.549252 	94.300003 	4.707386 	3.603806 	1.609961 	1.877104 	
89.000000 	372.890015 	23.576916 	94.195831 	4.783712 	3.617753 	1.595051 	1.874415 	
90.000000 	373.260010 	23.737959 	94.376038 	4.837595 	3.628850 	1.590658 	1.878160 	
91.000000 	373.640015 	23.747999 	94.518753 	4.829545 	3.621466 	1.592746 	1.880619 	
92.000000 	374.010010 	23.675833 	94.379166 	4.749243 	3.611051 	1.606469 	1.880456 	
93.000000 	374.390015 	24.002375 	95.403122 	4.909374 	3.732744 	1.587006 	1.861009 	
94.000000 	374.760010 	23.487083 	95.729164 	4.733334 	3.694746 	1.601821 	1.849539 	
95.000000 	375.140015 	23.304251 	95.025002 	4.628977 	3.658152 	1.616300 	1.851678 	
96.000000 	375.519989 	23.630375 	94.621872 	4.669600 	3.593884 	1.621459 	1.883299 	
97.000000 	375.890015 	23.733501 	94.699997 	4.720455 	3.682066 	1.614982 	1.863414 	
98.000000 	376.269989 	23.662624 	94.628128 	4.678125 	3.682201 	1.620999 	1.860386 	
99.000000 	376.640015 	23.758501 	94.500000 	4.743182 	3.673913 	1.611232 	1.866683 	
100.000000 	377.019989 	23.798082 	94.460419 	4.855492 	3.734692 	1.589495 	1.851940 	
101.000000 	377.390015 	23.874041 	94.492706 	4.896497 	3.716531 	1.584272 	1.860001 	
102.000000 	377.769989 	23.990208 	94.426041 	4.921117 	3.883198 	1.584110 	1.820987 	
103.000000 	378.140015 	23.861250 	94.587502 	4.852272 	3.795651 	1.592809 	1.838400 	
104.000000 	378.519989 	23.833668 	94.602081 	4.884280 	3.749003 	1.585077 	1.849609 	
105.000000 	378.890015 	24.023666 	95.033333 	4.916666 	3.844928 	1.586409 	1.832285 	
106.000000 	379.269989 	23.818876 	95.109375 	4.857671 	3.781929 	1.589919 	1.840244 	
107.000000 	379.640015 	23.942875 	95.021873 	4.982670 	3.916712 	1.569705 	1.810418 	
108.000000 	380.019989 	24.044790 	95.230209 	5.047632 	3.947509 	1.560999 	1.806834 	
109.000000 	380.399994 	23.841249 	95.181252 	4.994887 	3.902447 	1.563002 	1.809814 	
110.000000 	380.769989 	23.885084 	94.885414 	4.989015 	3.835235 	1.566016 	1.829023 	
111.000000 	381.149994 	24.318708 	96.051041 	5.149527 	4.026676 	1.552341 	1.798305 	
112.000000 	381.519989 	23.968250 	97.125000 	5.109091 	4.021739 	1.545709 	1.785016 	
113.000000 	381.899994 	23.359041 	96.217712 	4.859565 	3.762726 	1.570035 	1.825840 	
114.000000 	382.269989 	23.740501 	95.187500 	4.939205 	3.891305 	1.569978 	1.808438 	
115.000000 	382.649994 	24.554333 	96.816666 	5.188447 	4.078986 	1.554454 	1.795040 	
116.000000 	383.019989 	23.550499 	96.093750 	4.998862 	3.961142 	1.549937 	1.782615 	
117.000000 	383.390015 	23.881042 	95.355209 	5.127747 	4.038814 	1.538419 	1.777134 	
118.000000 	383.769989 	24.048624 	94.978127 	4.992898 	4.093614 	1.572061 	1.770650 	
119.000000 	384.140015 	24.168417 	95.039581 	5.053030 	4.071830 	1.565058 	1.780954 	
120.000000 	384.519989 	24.424919 	95.795830 	5.214963 	4.204168 	1.544072 	1.759527 	
121.000000 	384.890015 	24.013792 	95.361458 	5.119224 	4.172781 	1.545626 	1.750046 	
122.000000 	385.269989 	24.252625 	94.903122 	5.178694 	4.216441 	1.543972 	1.749533 	
123.000000 	385.640015 	24.352293 	94.892708 	5.112406 	4.289900 	1.560956 	1.736362 	
124.000000 	386.019989 	24.410707 	95.038544 	5.121119 	4.225588 	1.561649 	1.753863 	
125.000000 	386.390015 	24.472000 	95.293747 	5.198296 	4.312772 	1.549199 	1.735949 	
126.000000 	386.769989 	24.429543 	95.048958 	5.302178 	4.444520 	1.527676 	1.704121 	
127.000000 	387.140015 	24.445791 	94.986458 	5.241381 	4.292345 	1.539873 	1.739625 	
128.000000 	387.519989 	24.558500 	94.893753 	5.316478 	4.362772 	1.530247 	1.727950 	
129.000000 	387.890015 	24.655207 	95.069794 	5.322252 	4.450315 	1.533091 	1.712013 	
130.000000 	388.269989 	24.559708 	95.038544 	5.245549 	4.289719 	1.543727 	1.744886 	
131.000000 	388.640015 	24.635250 	95.125000 	5.343750 	4.311957 	1.528251 	1.742787 	
132.000000 	389.010010 	24.694876 	95.140625 	5.417899 	4.386006 	1.516888 	1.728177 	
133.000000 	389.390015 	24.729250 	95.150002 	5.447159 	4.510326 	1.512893 	1.701617 	
134.000000 	389.760010 	24.707666 	95.008331 	5.370644 	4.479711 	1.526166 	1.707555 	
135.000000 	390.140015 	24.851873 	94.815628 	5.513920 	4.516439 	1.505657 	1.705209 	
136.000000 	390.510010 	24.882376 	94.809372 	5.523012 	4.539538 	1.505236 	1.701334 	
137.000000 	390.890015 	24.943041 	94.867706 	5.487404 	4.502943 	1.514140 	1.711864 	
138.000000 	391.260010 	24.942375 	95.015625 	5.556535 	4.650137 	1.501594 	1.679672 	
139.000000 	391.630005 	24.869835 	95.041664 	5.518561 	4.569747 	1.505538 	1.694198 	
140.000000 	392.010010 	24.982248 	95.087502 	5.662500 	4.634782 	1.484300 	1.684576 	
141.000000 	392.380005 	25.047251 	94.981247 	5.614204 	4.722553 	1.495464 	1.668415 	
142.000000 	392.760010 	25.097958 	94.907295 	5.643844 	4.754665 	1.492221 	1.663660 	
143.000000 	393.130005 	25.086084 	94.904167 	5.567992 	4.738769 	1.505279 	1.666536 	
144.000000 	393.500000 	25.168751 	94.900002 	5.611365 	4.740762 	1.500809 	1.669405 	
145.000000 	393.880005 	25.230415 	95.114586 	5.655870 	4.784872 	1.495356 	1.662591 	
146.000000 	394.250000 	25.305832 	95.660416 	5.802651 	4.878169 	1.472720 	1.646265 	
147.000000 	394.630005 	25.044292 	95.523956 	5.665814 	4.837454 	1.486195 	1.644257 	
148.000000 	395.000000 	25.221876 	95.334373 	5.763921 	4.856930 	1.476094 	1.647305 	
149.000000 	395.369995 	25.191334 	95.141663 	5.799811 	4.900725 	1.468675 	1.637117 	
150.000000 	395.750000 	25.412542 	94.980209 	5.842519 	4.945334 	1.470081 	1.636798 	
151.000000 	396.119995 	25.526625 	95.096878 	5.879829 	5.102037 	1.468194 	1.610082 	
152.000000 	396.489990 	25.549751 	95.268753 	5.829546 	5.129619 	1.477688 	1.605596 	
153.000000 	396.869995 	25.569166 	95.495834 	5.902462 	5.149276 	1.466018 	1.602531 	
154.000000 	397.239990 	25.580667 	95.708336 	5.998484 	5.161775 	1.450330 	1.600556 	
155.000000 	397.619995 	25.549835 	95.779167 	5.948675 	5.194204 	1.457462 	1.593088 	
156.000000 	397.989990 	25.862667 	96.314583 	6.125189 	5.433242 	1.440391 	1.560264 	
157.000000 	398.359985 	25.515041 	95.636459 	6.055587 	5.416260 	1.438287 	1.549863 	
158.000000 	398.739990 	25.827168 	95.439583 	6.072349 	5.417481 	1.447681 	1.561796 	
159.000000 	399.109985 	25.717751 	95.256248 	6.125001 	5.356795 	1.434803 	1.568815 	
160.000000 	399.480011 	25.890041 	95.061455 	6.202178 	5.431477 	1.428958 	1.561647 	
161.000000 	399.859985 	26.105043 	95.017708 	6.258428 	5.526857 	1.428200 	1.552509 	
162.000000 	400.230011 	26.244501 	95.206253 	6.352842 	5.481251 	1.418554 	1.566123 	
163.000000 	400.600006 	26.226542 	95.098961 	6.359564 	5.618976 	1.416812 	1.540623 	
164.000000 	400.980011 	26.311666 	95.002083 	6.425189 	5.660417 	1.409786 	1.536515 	
165.000000 	401.350006 	26.452333 	94.985420 	6.492991 	5.805888 	1.404621 	1.516472 	
166.000000 	401.720001 	26.610542 	95.173958 	6.553882 	5.951584 	1.401250 	1.497650 	
167.000000 	402.100006 	26.647667 	95.427086 	6.547917 	5.907156 	1.403555 	1.506537 	
168.000000 	402.470001 	26.792248 	95.987503 	6.671589 	6.053259 	1.390254 	1.487516 	
169.000000 	402.839996 	26.541166 	95.564583 	6.660985 	6.039765 	1.382430 	1.480332 	
170.000000 	403.209991 	26.792707 	95.432297 	6.689298 	6.131838 	1.387621 	1.474635 	
171.000000 	403.589996 	26.989124 	95.215622 	6.789488 	6.345244 	1.380058 	1.447728 	
172.000000 	403.959991 	27.085833 	95.110420 	6.806629 	6.328713 	1.381114 	1.453914 	
173.000000 	404.329987 	27.464209 	95.351044 	6.936458 	6.466892 	1.376092 	1.446188 	
174.000000 	404.709991 	27.312750 	95.337502 	6.946590 	6.440217 	1.369103 	1.444792 	
175.000000 	405.079987 	27.624041 	95.173958 	7.162973 	6.617889 	1.349761 	1.428910 	
176.000000 	405.450012 	27.926790 	95.298958 	7.381155 	6.792346 	1.330656 	1.413790 	
177.000000 	405.829987 	28.162708 	95.588539 	7.607481 	7.101676 	1.308867 	1.377668 	
178.000000 	406.200012 	28.178291 	95.442711 	7.678882 	7.209466 	1.300078 	1.363157 	
179.000000 	406.570007 	28.424000 	95.212502 	7.694887 	7.254892 	1.306678 	1.365558 	
180.000000 	406.940002 	28.895750 	95.118752 	7.830113 	7.481249 	1.305717 	1.351295 	
181.000000 	407.320007 	29.515041 	96.380211 	8.211268 	7.973052 	1.279393 	1.308833 	
182.000000 	407.690002 	29.016459 	96.451042 	8.166003 	7.887002 	1.267884 	1.302647 	
183.000000 	408.059998 	29.124001 	95.668747 	8.239204 	7.865489 	1.262659 	1.309078 	
184.000000 	408.429993 	29.673208 	95.282288 	8.421685 	8.138904 	1.259434 	1.293589 	
185.000000 	408.809998 	30.332792 	95.517708 	8.711268 	8.483378 	1.247612 	1.274121 	
186.000000 	409.179993 	30.497208 	95.313545 	8.932481 	8.741893 	1.227941 	1.249508 	
187.000000 	409.549988 	31.048582 	95.210419 	9.119697 	9.028714 	1.225116 	1.235143 	
188.000000 	409.920013 	31.612457 	95.307289 	9.378503 	9.514447 	1.215131 	1.200740 	
189.000000 	410.299988 	31.937750 	95.224998 	9.627273 	9.715761 	1.199189 	1.190039 	
190.000000 	410.670013 	32.467457 	95.413544 	10.016004 	10.111458 	1.176054 	1.166569 	
191.000000 	411.040009 	33.067875 	95.259377 	10.323012 	10.513452 	1.164187 	1.145907 	
192.000000 	411.410004 	33.642750 	95.087502 	10.653410 	10.938044 	1.149918 	1.123551 	
193.000000 	411.790009 	34.106087 	95.054169 	10.894698 	11.218659 	1.141200 	1.111897 	
194.000000 	412.160004 	34.942585 	94.985413 	11.361743 	11.786323 	1.123454 	1.086766 	
195.000000 	412.529999 	36.010414 	95.295837 	11.926893 	12.538948 	1.105012 	1.054969 	
196.000000 	412.899994 	36.262749 	95.543747 	12.273865 	12.916576 	1.083319 	1.032279 	
197.000000 	413.279999 	37.105251 	95.468750 	12.551705 	13.438859 	1.083902 	1.015608 	
198.000000 	413.649994 	38.234669 	96.120834 	13.192802 	14.185688 	1.064071 	0.991509 	
199.000000 	414.019989 	38.573502 	95.900002 	13.362500 	14.607065 	1.060113 	0.971060 	
200.000000 	414.390015 	39.796165 	96.189583 	13.980301 	15.356068 	1.046121 	0.952260 	
201.000000 	414.760010 	40.934124 	96.040627 	14.609375 	16.180027 	1.030301 	0.928187 	
202.000000 	415.140015 	41.973541 	95.505211 	15.231154 	17.058922 	1.013697 	0.900366 	
203.000000 	415.510010 	43.448376 	95.265625 	15.825852 	17.952852 	1.009929 	0.883825 	
204.000000 	415.880005 	44.786251 	95.137497 	16.590908 	18.885870 	0.993046 	0.863487 	
205.000000 	416.250000 	46.530334 	95.297920 	17.597538 	20.198822 	0.972345 	0.834480 	
206.000000 	416.619995 	47.988667 	95.364586 	18.417803 	21.387049 	0.957647 	0.808179 	
207.000000 	417.000000 	49.298706 	95.219795 	19.163162 	22.385098 	0.944908 	0.789502 	
208.000000 	417.369995 	51.294750 	95.112503 	20.055681 	23.802174 	0.939076 	0.767812 	
209.000000 	417.739990 	53.541416 	95.402084 	21.338259 	25.407156 	0.919954 	0.745425 	
210.000000 	418.109985 	55.238293 	95.230209 	22.316950 	26.790987 	0.906310 	0.723591 	
211.000000 	418.480011 	57.826252 	95.331253 	23.677841 	28.765490 	0.892903 	0.698266 	
212.000000 	418.850006 	60.061127 	95.153122 	24.772446 	30.370789 	0.885631 	0.681881 	
213.000000 	419.230011 	63.251331 	95.079170 	26.446970 	32.818657 	0.871975 	0.656119 	
214.000000 	419.600006 	65.736748 	95.356247 	27.969318 	34.866577 	0.854550 	0.634129 	
215.000000 	419.970001 	67.500832 	95.235413 	28.901516 	36.267845 	0.848246 	0.621208 	
216.000000 	420.339996 	72.250252 	95.306252 	31.201706 	39.591579 	0.839663 	0.601519 	
217.000000 	420.709991 	75.728668 	95.445831 	33.010986 	42.453625 	0.830317 	0.578745 	
218.000000 	421.079987 	77.359543 	95.436455 	34.110703 	44.019520 	0.818853 	0.563831 	
219.000000 	421.450012 	82.423668 	96.564583 	37.000191 	48.124004 	0.800950 	0.538092 	
220.000000 	421.829987 	85.756172 	96.102081 	38.550190 	50.410416 	0.799547 	0.531310 	
221.000000 	422.200012 	90.231415 	95.839584 	40.763824 	54.083244 	0.794582 	0.511853 	
222.000000 	422.570007 	94.366333 	96.154167 	43.239582 	57.528984 	0.780428 	0.494895 	
223.000000 	422.940002 	100.763336 	95.622917 	45.883900 	61.939041 	0.786660 	0.486624 	
224.000000 	423.309998 	105.487663 	95.227081 	48.421211 	65.613678 	0.778656 	0.474810 	
225.000000 	423.679993 	108.408295 	95.561462 	50.680588 	68.555931 	0.760361 	0.458255 	
226.000000 	424.049988 	118.418671 	96.014580 	55.345078 	76.234871 	0.760638 	0.440407 	
227.000000 	424.420013 	122.040833 	95.529167 	56.977654 	79.020294 	0.761696 	0.434651 	
228.000000 	424.799988 	129.165756 	96.000000 	61.115341 	85.241302 	0.748333 	0.415610 	
229.000000 	425.170013 	136.841370 	95.678123 	64.515053 	90.796875 	0.751924 	0.410197 	
230.000000 	425.540009 	142.234833 	95.322914 	67.796974 	95.493385 	0.740962 	0.398423 	
231.000000 	425.910004 	150.201492 	96.324997 	72.134094 	102.645653 	0.733451 	0.380695 	
232.000000 	426.279999 	156.177460 	95.794792 	74.318848 	106.814987 	0.742629 	0.379895 	
233.000000 	426.649994 	162.944748 	95.218750 	77.686363 	112.457878 	0.740731 	0.370832 	
234.000000 	427.019989 	171.489044 	95.061462 	82.239677 	119.444519 	0.734881 	0.361667 	
235.000000 	427.390015 	182.623749 	95.706253 	88.431824 	129.070389 	0.725196 	0.347070 	
236.000000 	427.760010 	191.018799 	95.392708 	91.962975 	135.373596 	0.730986 	0.344334 	
237.000000 	428.130005 	200.257034 	95.061462 	96.723198 	142.984192 	0.727748 	0.336867 	
238.000000 	428.510010 	208.413712 	95.038544 	100.892708 	150.045700 	0.725468 	0.328585 	
239.000000 	428.880005 	213.705872 	94.940628 	103.417328 	154.518616 	0.725828 	0.324286 	
240.000000 	429.250000 	229.646713 	94.944794 	111.375092 	167.447052 	0.723639 	0.315875 	
241.000000 	429.619995 	244.960663 	94.964584 	119.138824 	180.173996 	0.720809 	0.307175 	
242.000000 	429.989990 	251.440414 	95.395836 	122.113258 	185.938950 	0.722257 	0.301787 	
243.000000 	430.359985 	262.729889 	95.278122 	127.489487 	195.634918 	0.723093 	0.294876 	
244.000000 	430.730011 	273.343964 	95.182289 	133.070557 	205.067169 	0.719851 	0.287394 	
245.000000 	431.100006 	282.333588 	95.066666 	137.265717 	212.890930 	0.721171 	0.282310 	
246.000000 	431.470001 	299.311584 	94.947914 	146.033340 	227.435776 	0.717650 	0.274617 	
247.000000 	431.839996 	308.651245 	94.949997 	150.511368 	236.208694 	0.718174 	0.267497 	
248.000000 	432.209991 	326.905945 	94.907288 	160.033615 	252.250320 	0.714289 	0.259251 	
249.000000 	432.579987 	338.707947 	95.051041 	166.009186 	262.939728 	0.713095 	0.253213 	
250.000000 	432.950012 	350.631042 	95.030205 	171.900467 	274.037720 	0.712819 	0.246469 	
251.000000 	433.320007 	369.159698 	95.363541 	181.657471 	290.353851 	0.709106 	0.240129 	
252.000000 	433.690002 	380.716583 	95.410416 	187.200943 	300.528168 	0.709873 	0.236514 	
253.000000 	434.059998 	398.128540 	95.680206 	196.264679 	316.079559 	0.707311 	0.230781 	
254.000000 	434.429993 	415.697998 	95.750000 	205.030685 	331.285858 	0.706800 	0.226977 	
255.000000 	434.799988 	432.291748 	95.312500 	213.138641 	346.010315 	0.707158 	0.222632 	
256.000000 	435.170013 	448.076782 	95.192711 	221.112976 	360.145325 	0.706291 	0.218457 	
257.000000 	435.540009 	462.394623 	95.321877 	228.658249 	372.996613 	0.704190 	0.214849 	
258.000000 	435.910004 	495.459137 	95.059372 	245.360519 	401.142792 	0.702756 	0.211167 	
259.000000 	436.279999 	504.155426 	95.127083 	249.572342 	409.628357 	0.703136 	0.207634 	
260.000000 	436.649994 	537.095337 	95.022919 	266.212311 	438.255341 	0.701881 	0.203374 	
261.000000 	437.019989 	571.690796 	94.936462 	283.898773 	468.735291 	0.699981 	0.198560 	
262.000000 	437.390015 	568.917847 	95.140625 	282.019043 	467.849579 	0.701762 	0.195590 	
263.000000 	437.760010 	611.991943 	95.094788 	303.572815 	505.499237 	0.701097 	0.191173 	
264.000000 	438.130005 	612.552124 	95.246872 	303.611084 	507.340637 	0.701887 	0.188451 	
265.000000 	438.500000 	653.266724 	95.351044 	323.887604 	542.965820 	0.701589 	0.184939 	
266.000000 	438.869995 	675.216492 	95.300003 	334.414764 	562.792908 	0.702651 	0.182122 	
267.000000 	439.239990 	681.281860 	95.279167 	337.453796 	569.487671 	0.702548 	0.179239 	
268.000000 	439.609985 	710.652344 	95.135414 	351.480499 	595.727112 	0.704030 	0.176401 	
269.000000 	439.980011 	738.557007 	95.187500 	365.788055 	621.291321 	0.702644 	0.172898 	
270.000000 	440.350006 	803.526672 	95.408333 	397.255310 	678.892212 	0.704431 	0.168548 	
271.000000 	440.720001 	797.510925 	95.427086 	394.374634 	675.078918 	0.704195 	0.166666 	
272.000000 	441.089996 	817.355225 	95.087502 	403.600006 	693.540222 	0.705649 	0.164265 	
273.000000 	441.459991 	842.729980 	94.988541 	416.264862 	717.157654 	0.705325 	0.161351 	
274.000000 	441.829987 	877.330811 	94.867706 	433.260132 	748.454041 	0.705546 	0.158875 	
275.000000 	442.200012 	905.374695 	94.801041 	446.788177 	774.388062 	0.706264 	0.156276 	
276.000000 	442.570007 	944.102173 	94.870834 	465.950745 	809.892212 	0.706154 	0.153333 	
277.000000 	442.940002 	979.684692 	95.058334 	483.398468 	842.585144 	0.706389 	0.150756 	
278.000000 	443.309998 	1018.197937 	95.139580 	502.662109 	878.573486 	0.705872 	0.147491 	
279.000000 	443.679993 	1042.156494 	95.337502 	514.996582 	900.527710 	0.704887 	0.146067 	
280.000000 	444.049988 	1070.023438 	95.232292 	528.508606 	927.086182 	0.705377 	0.143389 	
281.000000 	444.410004 	1112.238159 	94.984375 	549.454285 	965.911804 	0.705204 	0.141057 	
282.000000 	444.779999 	1153.738892 	95.060417 	569.917419 	1004.421082 	0.705272 	0.138597 	
283.000000 	445.149994 	1134.247681 	95.638542 	560.898376 	988.502197 	0.704185 	0.137534 	
284.000000 	445.519989 	1173.494873 	95.410416 	579.725952 	1024.652588 	0.705186 	0.135633 	
285.000000 	445.890015 	1232.169800 	96.018753 	610.068176 	1079.347534 	0.702961 	0.132420 	
286.000000 	446.260010 	1271.442383 	95.515625 	629.201416 	1115.587036 	0.703456 	0.130771 	
287.000000 	446.630005 	1293.473022 	95.050003 	640.327820 	1136.768433 	0.703106 	0.129141 	
288.000000 	447.000000 	1334.293945 	96.513542 	662.227356 	1176.142456 	0.700549 	0.126162 	
289.000000 	447.369995 	1370.699463 	95.907295 	679.402344 	1209.509033 	0.701863 	0.125106 	
290.000000 	447.739990 	1382.113892 	95.185417 	685.894104 	1221.048340 	0.700646 	0.123904 	
291.000000 	448.109985 	1429.590698 	95.333336 	710.517822 	1265.805298 	0.699149 	0.121680 	
292.000000 	448.470001 	1473.447998 	96.463539 	733.976257 	1307.346191 	0.696884 	0.119606 	
293.000000 	448.839996 	1469.004272 	95.942711 	730.861816 	1304.567017 	0.698116 	0.118714 	
294.000000 	449.209991 	1541.967041 	96.273956 	770.187988 	1373.283691 	0.694180 	0.115854 	
295.000000 	449.579987 	1566.784790 	95.991669 	781.967407 	1396.940918 	0.694968 	0.114741 	
296.000000 	449.950012 	1591.368408 	95.452087 	794.863831 	1420.124023 	0.694179 	0.113850 	
297.000000 	450.320007 	1621.934082 	95.348961 	811.756165 	1449.162476 	0.692174 	0.112634 	
298.000000 	450.690002 	1618.416260 	95.675003 	810.558533 	1447.351685 	0.691480 	0.111713 	
299.000000 	451.059998 	1689.397095 	95.586456 	847.751587 	1514.467896 	0.689539 	0.109308 	
300.000000 	451.420013 	1721.021851 	95.041664 	864.788452 	1544.053467 	0.688189 	0.108507 	
301.000000 	451.790009 	1741.998535 	95.011459 	877.507324 	1565.061401 	0.685703 	0.107108 	
302.000000 	452.160004 	1759.522705 	95.051041 	887.051819 	1581.589111 	0.684895 	0.106613 	
303.000000 	452.529999 	1803.229370 	94.853127 	910.697998 	1622.484863 	0.683123 	0.105620 	
304.000000 	452.899994 	1826.605103 	94.685417 	924.223083 	1645.391724 	0.681261 	0.104481 	
305.000000 	453.269989 	1864.134399 	94.734375 	944.519592 	1681.279175 	0.679875 	0.103242 	
306.000000 	453.630005 	1900.558594 	94.671875 	965.320740 	1715.403687 	0.677443 	0.102499 	
307.000000 	454.000000 	1901.489746 	94.873955 	966.789124 	1716.891846 	0.676413 	0.102122 	
308.000000 	454.369995 	1949.865234 	94.793747 	993.863647 	1763.025269 	0.673916 	0.100729 	
309.000000 	454.739990 	1951.157104 	94.653122 	996.022461 	1764.987061 	0.672408 	0.100279 	
310.000000 	455.109985 	1965.364502 	94.855209 	1004.782288 	1779.417603 	0.670907 	0.099392 	
311.000000 	455.480011 	2034.151489 	95.007294 	1042.872192 	1843.029663 	0.668100 	0.098668 	
312.000000 	455.839996 	2058.402344 	95.117706 	1057.378906 	1866.553467 	0.666137 	0.097836 	
313.000000 	456.209991 	2073.393066 	95.000000 	1067.210815 	1881.302734 	0.664138 	0.097222 	
314.000000 	456.579987 	2043.522583 	94.973961 	1052.933960 	1855.415771 	0.663095 	0.096566 	
315.000000 	456.950012 	2157.122070 	94.893753 	1115.759644 	1959.832886 	0.659240 	0.095916 	
316.000000 	457.320007 	2132.733887 	95.107292 	1104.254028 	1938.055786 	0.658235 	0.095720 	
317.000000 	457.679993 	2125.344238 	95.078125 	1101.844604 	1931.758301 	0.656948 	0.095503 	
318.000000 	458.049988 	2186.995850 	95.071877 	1136.869019 	1987.974365 	0.654251 	0.095413 	
319.000000 	458.420013 	2199.218262 	96.587502 	1147.044312 	2001.472290 	0.650913 	0.094219 	
320.000000 	458.790009 	2198.784424 	96.033333 	1146.518311 	2000.106934 	0.651175 	0.094704 	
321.000000 	459.160004 	2262.948486 	95.310417 	1184.731079 	2060.492920 	0.647153 	0.093723 	
322.000000 	459.519989 	2246.380371 	94.933334 	1177.467773 	2045.324829 	0.645954 	0.093763 	
323.000000 	459.890015 	2332.240723 	94.973961 	1227.055542 	2125.071777 	0.642212 	0.093024 	
324.000000 	460.260010 	2319.345459 	95.712502 	1221.702271 	2112.710205 	0.641040 	0.093313 	
325.000000 	460.630005 	2341.479736 	95.469788 	1236.264893 	2133.312256 	0.638688 	0.093107 	
326.000000 	460.989990 	2388.076904 	95.355209 	1265.189087 	2176.377930 	0.635267 	0.092826 	
327.000000 	461.359985 	2371.307129 	95.368752 	1257.900513 	2161.583496 	0.633997 	0.092600 	
328.000000 	461.730011 	2397.969971 	95.244789 	1274.937622 	2186.277588 	0.631725 	0.092422 	
329.000000 	462.100006 	2426.734375 	96.280205 	1294.427246 	2212.700195 	0.628479 	0.092333 	
330.000000 	462.459991 	2399.185547 	95.569794 	1280.107422 	2185.514893 	0.628185 	0.093278 	
331.000000 	462.829987 	2455.638184 	94.927086 	1315.235962 	2237.756104 	0.624371 	0.092913 	
332.000000 	463.200012 	2445.119629 	94.808334 	1312.402466 	2229.578125 	0.622235 	0.092282 	
333.000000 	463.570007 	2451.002441 	94.746872 	1318.529297 	2233.509033 	0.619980 	0.092923 	
334.000000 	463.929993 	2507.315674 	94.632294 	1352.602417 	2285.081787 	0.617182 	0.092811 	
335.000000 	464.299988 	2519.618652 	94.596878 	1362.700806 	2296.264648 	0.614639 	0.092824 	
336.000000 	464.670013 	2524.875488 	94.745834 	1368.765015 	2300.532471 	0.612283 	0.093051 	
337.000000 	465.040009 	2565.060303 	94.711456 	1394.624878 	2336.727783 	0.609356 	0.093230 	
338.000000 	465.399994 	2527.738525 	94.789581 	1376.967285 	2302.520752 	0.607441 	0.093320 	
339.000000 	465.769989 	2582.898682 	94.909378 	1412.245728 	2352.659668 	0.603731 	0.093366 	
340.000000 	466.140015 	2556.177734 	94.979164 	1399.776489 	2326.980713 	0.602201 	0.093941 	
341.000000 	466.510010 	2560.690674 	94.760414 	1405.522583 	2330.027100 	0.599868 	0.094397 	
342.000000 	466.869995 	2563.202393 	94.579163 	1410.374878 	2330.912109 	0.597402 	0.094998 	
343.000000 	467.239990 	2631.850586 	94.497917 	1453.310059 	2392.750488 	0.593843 	0.095243 	
344.000000 	467.609985 	2608.028564 	94.879166 	1443.331055 	2371.669678 	0.591641 	0.095000 	
345.000000 	467.970001 	2600.104492 	94.769791 	1441.424561 	2362.196533 	0.589920 	0.095960 	
346.000000 	468.339996 	2657.552734 	94.562500 	1478.977295 	2414.121826 	0.586055 	0.096070 	
347.000000 	468.709991 	2634.580078 	94.810417 	1470.112915 	2393.122803 	0.583385 	0.096125 	
348.000000 	469.070007 	2655.191162 	94.872917 	1485.531006 	2410.351563 	0.580745 	0.096744 	
349.000000 	469.440002 	2662.800049 	94.751038 	1493.352417 	2416.204346 	0.578355 	0.097180 	
350.000000 	469.809998 	2626.184082 	94.771873 	1475.809326 	2380.997070 	0.576325 	0.098012 	
351.000000 	470.170013 	2642.222900 	94.664581 	1489.266113 	2395.200684 	0.573337 	0.098154 	
352.000000 	470.540009 	2708.907715 	94.569794 	1532.784180 	2455.298096 	0.569459 	0.098297 	
353.000000 	470.910004 	2665.551025 	127.954163 	1524.852661 	2432.870850 	0.558513 	0.091339 	
354.000000 	471.269989 	2701.590820 	106.481247 	1532.348267 	2445.683838 	0.567039 	0.099516 	
355.000000 	471.640015 	2647.898682 	98.667709 	1508.516357 	2396.173584 	0.562640 	0.099893 	
356.000000 	472.010010 	2723.314209 	96.800003 	1558.759033 	2464.026123 	0.557960 	0.100053 	
357.000000 	472.369995 	2684.900391 	95.482292 	1539.108643 	2426.586182 	0.556440 	0.101159 	
358.000000 	472.739990 	2639.774902 	94.744789 	1516.709229 	2382.802979 	0.554151 	0.102416 	
359.000000 	473.109985 	2596.607666 	94.590622 	1494.766235 	2342.557861 	0.552236 	0.102962 	
360.000000 	473.470001 	2652.305420 	94.553123 	1533.609375 	2393.291504 	0.547805 	0.102759 	
361.000000 	473.839996 	2639.593750 	94.489586 	1529.908081 	2378.708252 	0.545417 	0.104067 	
362.000000 	474.209991 	2577.013428 	94.490623 	1496.345215 	2319.436035 	0.543605 	0.105307 	
363.000000 	474.570007 	2662.458740 	94.871872 	1553.422974 	2395.860107 	0.538789 	0.105508 	
364.000000 	474.940002 	2620.388916 	94.886459 	1531.140869 	2355.940674 	0.537310 	0.106383 	
365.000000 	475.299988 	2595.364746 	97.448959 	1522.507324 	2332.255859 	0.533368 	0.106891 	
366.000000 	475.670013 	2591.066650 	96.360420 	1522.437866 	2327.103271 	0.531757 	0.107446 	
367.000000 	476.040009 	2560.653076 	95.020836 	1508.696289 	2296.434082 	0.529016 	0.108905 	
368.000000 	476.399994 	2538.737549 	94.654167 	1499.411743 	2274.830566 	0.526594 	0.109761 	
369.000000 	476.769989 	2507.594971 	94.718750 	1485.257935 	2245.622070 	0.523736 	0.110342 	
370.000000 	477.140015 	2528.591553 	95.082291 	1502.494385 	2261.261719 	0.520536 	0.111740 	
371.000000 	477.500000 	2508.602539 	94.785416 	1494.561768 	2241.516357 	0.517893 	0.112574 	
372.000000 	477.869995 	2469.007324 	94.698959 	1474.305542 	2204.239746 	0.515629 	0.113434 	
373.000000 	478.230011 	2445.500000 	94.555206 	1464.032837 	2180.142090 	0.513055 	0.114860 	
374.000000 	478.600006 	2415.566650 	94.615623 	1450.073608 	2151.530518 	0.510319 	0.115754 	
375.000000 	478.970001 	2401.568848 	94.530212 	1445.687378 	2137.595947 	0.507537 	0.116440 	
376.000000 	479.329987 	2364.307617 	94.523956 	1426.954468 	2101.212402 	0.504943 	0.117970 	
377.000000 	479.700012 	2356.139648 	94.597916 	1426.412354 	2092.565186 	0.501863 	0.118634 	
378.000000 	480.059998 	2321.202148 	94.708336 	1408.088867 	2058.680176 	0.499852 	0.120020 	
379.000000 	480.429993 	2299.864014 	94.761459 	1399.557861 	2037.443970 	0.496694 	0.121154 	
380.000000 	480.790009 	2261.004639 	94.815628 	1378.832153 	2000.131714 	0.494573 	0.122596 	
381.000000 	481.160004 	2242.111328 	94.678123 	1371.107666 	1981.670288 	0.491799 	0.123478 	
382.000000 	481.529999 	2225.129883 	94.652084 	1364.949585 	1964.283203 	0.488698 	0.124688 	
383.000000 	481.890015 	2178.144287 	94.585419 	1338.701538 	1919.463013 	0.486773 	0.126428 	
384.000000 	482.260010 	2139.873535 	94.392708 	1318.822021 	1883.484985 	0.484008 	0.127623 	
385.000000 	482.619995 	2125.777100 	94.339584 	1313.971802 	1868.317993 	0.481083 	0.129099 	
386.000000 	482.989990 	2105.775391 	94.410416 	1305.141357 	1848.248779 	0.478373 	0.130445 	
387.000000 	483.350006 	2072.168701 	94.569794 	1287.600098 	1816.773193 	0.475816 	0.131534 	
388.000000 	483.720001 	2057.286133 	94.514587 	1282.109863 	1800.813110 	0.472880 	0.133149 	
389.000000 	484.079987 	2014.475830 	94.565628 	1258.437256 	1760.793091 	0.470488 	0.134594 	
390.000000 	484.450012 	1987.777466 	95.014587 	1245.432617 	1735.485474 	0.467534 	0.135730 	
391.000000 	484.809998 	1955.994873 	94.890625 	1227.683838 	1704.008789 	0.465770 	0.137916 	
392.000000 	485.179993 	1935.874268 	96.831253 	1220.109131 	1685.421509 	0.461619 	0.138544 	
393.000000 	485.549988 	1916.976685 	96.020836 	1209.608765 	1665.565063 	0.460453 	0.140585 	
394.000000 	485.910004 	1874.656738 	94.898956 	1185.714722 	1625.246704 	0.458080 	0.142766 	
395.000000 	486.279999 	1864.560303 	94.718750 	1183.141479 	1614.628540 	0.454852 	0.143920 	
396.000000 	486.640015 	1841.153198 	94.763542 	1171.621094 	1591.726074 	0.452004 	0.145573 	
397.000000 	487.010010 	1790.192139 	94.746872 	1141.648560 	1544.780273 	0.449850 	0.147441 	
398.000000 	487.369995 	1785.947510 	94.536461 	1142.807251 	1539.610840 	0.446461 	0.148419 	
399.000000 	487.739990 	1746.091187 	94.528122 	1119.532715 	1502.014282 	0.444468 	0.150573 	
400.000000 	488.100006 	1732.187500 	94.636459 	1113.598755 	1487.582031 	0.441788 	0.152233 	
401.000000 	488.470001 	1700.358398 	94.702087 	1096.526855 	1457.843628 	0.438691 	0.153881 	
402.000000 	488.829987 	1683.884521 	94.748955 	1088.585083 	1441.348389 	0.436225 	0.155524 	
403.000000 	489.200012 	1659.056763 	94.443748 	1076.026733 	1417.554077 	0.432974 	0.157316 	
404.000000 	489.559998 	1630.403809 	94.354164 	1059.160034 	1390.445313 	0.431352 	0.159204 	
405.000000 	489.920013 	1604.493408 	94.288544 	1045.971069 	1365.747314 	0.427862 	0.161106 	
406.000000 	490.290009 	1594.715820 	94.242706 	1042.458984 	1354.854614 	0.425113 	0.163001 	
407.000000 	490.649994 	1560.195923 	94.469795 	1022.232483 	1322.912842 	0.422822 	0.164976 	
408.000000 	491.019989 	1541.991333 	94.423958 	1013.023743 	1304.837402 	0.420135 	0.166996 	
409.000000 	491.380005 	1519.139771 	94.318748 	1001.163086 	1284.024170 	0.416982 	0.168145 	
410.000000 	491.750000 	1506.583008 	94.662498 	995.882935 	1270.995117 	0.413970 	0.170044 	
411.000000 	492.109985 	1482.519653 	94.740623 	982.287781 	1247.796387 	0.411614 	0.172364 	
412.000000 	492.480011 	1460.249023 	94.699997 	970.536926 	1226.508667 	0.408513 	0.174435 	
413.000000 	492.839996 	1436.234131 	94.452087 	957.416687 	1204.322876 	0.405541 	0.176107 	
414.000000 	493.209991 	1434.362305 	94.493752 	958.886963 	1201.127441 	0.402702 	0.177460 	
415.000000 	493.570007 	1405.849854 	95.167709 	942.843079 	1174.443726 	0.399498 	0.179847 	
416.000000 	493.929993 	1391.659302 	94.862503 	935.220459 	1160.271729 	0.397470 	0.181843 	
417.000000 	494.299988 	1374.517700 	94.602081 	926.645630 	1143.858765 	0.394287 	0.183695 	
418.000000 	494.660004 	1353.896484 	94.400002 	915.517029 	1124.179321 	0.391253 	0.185934 	
419.000000 	495.029999 	1335.329834 	94.348961 	905.407837 	1106.239624 	0.388548 	0.188212 	
420.000000 	495.390015 	1324.857544 	94.531250 	901.038635 	1096.019897 	0.385512 	0.189620 	
421.000000 	495.760010 	1306.329590 	94.480209 	890.917542 	1077.604004 	0.382725 	0.192482 	
422.000000 	496.119995 	1296.331421 	94.338539 	886.298401 	1067.148926 	0.380240 	0.194548 	
423.000000 	496.480011 	1281.175659 	95.726044 	879.279053 	1053.497803 	0.376431 	0.195662 	
424.000000 	496.850006 	1262.316284 	95.186455 	867.789673 	1035.111938 	0.374754 	0.198439 	
425.000000 	497.209991 	1249.411499 	94.544792 	861.517700 	1023.117188 	0.371732 	0.199819 	
426.000000 	497.579987 	1233.473877 	94.389580 	852.927490 	1007.910400 	0.368916 	0.201955 	
427.000000 	497.940002 	1222.781494 	94.306252 	847.507385 	996.205688 	0.366584 	0.204930 	
428.000000 	498.299988 	1208.131104 	94.272919 	840.143005 	982.521118 	0.363258 	0.206708 	
429.000000 	498.670013 	1195.497437 	94.663544 	834.186462 	970.448975 	0.359860 	0.208559 	
430.000000 	499.029999 	1193.117798 	94.687500 	834.215332 	966.143494 	0.357834 	0.211013 	
431.000000 	499.399994 	1173.187378 	94.852081 	822.521790 	947.862061 	0.355104 	0.213271 	
432.000000 	499.760010 	1166.010132 	94.558334 	819.578613 	940.543823 	0.352553 	0.214885 	
433.000000 	500.119995 	1153.597290 	94.504166 	813.479370 	928.450195 	0.349320 	0.217124 	
434.000000 	500.489990 	1143.829346 	94.304169 	808.760620 	918.317566 	0.346634 	0.219594 	
435.000000 	500.850006 	1141.572144 	94.239586 	809.428040 	914.876160 	0.343834 	0.221373 	
436.000000 	501.209991 	1135.851318 	95.741669 	808.235596 	908.831177 	0.340284 	0.222978 	
437.000000 	501.579987 	1122.560913 	96.313538 	800.510864 	895.953857 	0.338118 	0.225479 	
438.000000 	501.940002 	1112.900879 	95.627083 	795.933167 	885.854431 	0.335210 	0.228173 	
439.000000 	502.309998 	1112.348755 	94.769791 	797.461487 	883.246521 	0.332795 	0.230625 	
440.000000 	502.670013 	1102.826294 	94.823959 	793.064697 	873.700500 	0.329727 	0.232894 	
441.000000 	503.029999 	1100.525146 	94.697914 	793.215698 	869.946655 	0.327448 	0.235111 	
442.000000 	503.399994 	1081.265137 	94.647919 	781.427063 	852.464600 	0.324765 	0.237755 	
443.000000 	503.760010 	1093.769531 	94.525002 	792.294861 	860.347839 	0.322452 	0.240049 	
444.000000 	504.119995 	1084.193604 	94.365623 	787.560486 	850.903381 	0.319652 	0.242293 	
445.000000 	504.489990 	1078.997070 	94.242706 	786.006165 	845.074158 	0.316823 	0.244363 	
446.000000 	504.850006 	1076.805664 	94.363541 	786.598389 	841.502197 	0.314036 	0.246566 	
447.000000 	505.209991 	1068.043213 	94.470833 	782.243347 	832.298218 	0.311418 	0.249393 	
448.000000 	505.579987 	1066.650024 	94.286461 	783.172058 	829.371155 	0.308926 	0.251610 	
449.000000 	505.940002 	1065.494019 	94.162498 	784.334656 	826.795654 	0.306358 	0.253636 	
450.000000 	506.299988 	1057.083374 	94.034378 	780.159363 	818.182495 	0.303771 	0.256183 	
451.000000 	506.660004 	1060.381714 	94.269791 	784.801819 	818.759521 	0.300953 	0.258594 	
452.000000 	507.029999 	1053.170532 	94.330208 	781.276062 	811.246399 	0.298632 	0.260989 	
453.000000 	507.390015 	1054.195801 	94.391663 	784.324829 	810.325195 	0.295711 	0.263098 	
454.000000 	507.750000 	1055.072510 	94.332291 	786.972229 	808.790527 	0.293172 	0.265825 	
455.000000 	508.119995 	1052.340332 	94.366669 	787.034485 	805.178955 	0.290500 	0.267707 	
456.000000 	508.480011 	1055.597656 	94.320831 	791.411011 	804.855774 	0.288045 	0.271200 	
457.000000 	508.839996 	1046.839966 	94.343750 	786.760803 	796.761169 	0.285607 	0.272976 	
458.000000 	509.200012 	1048.641357 	94.233330 	789.816101 	795.648743 	0.283451 	0.276093 	
459.000000 	509.570007 	1048.464355 	94.148956 	791.647034 	793.786377 	0.280966 	0.278267 	
460.000000 	509.929993 	1051.060791 	94.387497 	795.851685 	793.648376 	0.278142 	0.280915 	
461.000000 	510.290009 	1049.845215 	94.324997 	796.790344 	790.869568 	0.275806 	0.283265 	
462.000000 	510.660004 	1052.992676 	94.164581 	800.534302 	790.937073 	0.274112 	0.286173 	
463.000000 	511.019989 	1042.831665 	94.313545 	795.196716 	782.045166 	0.271106 	0.287783 	
464.000000 	511.380005 	1054.360474 	94.208328 	806.063843 	788.176453 	0.268527 	0.290967 	
465.000000 	511.739990 	1049.246338 	94.128128 	804.113342 	782.471863 	0.266087 	0.293369 	
466.000000 	512.109985 	1050.431030 	94.247917 	807.264038 	781.436890 	0.263305 	0.295822 	
467.000000 	512.469971 	1052.122803 	94.193748 	810.271606 	780.825806 	0.261196 	0.298213 	
468.000000 	512.830017 	1045.844971 	94.119789 	806.669983 	773.764954 	0.259666 	0.301312 	
469.000000 	513.190002 	1055.077637 	94.210419 	816.505493 	778.699890 	0.256336 	0.303744 	
470.000000 	513.559998 	1054.038818 	94.129166 	817.452637 	776.138245 	0.254191 	0.306054 	
471.000000 	513.919983 	1052.201172 	95.184372 	818.811096 	773.672119 	0.250786 	0.307491 	
472.000000 	514.280029 	1056.358643 	94.985420 	822.689575 	773.723267 	0.250004 	0.311369 	
473.000000 	514.640015 	1051.561157 	94.459373 	820.971313 	768.058594 	0.247543 	0.314165 	
474.000000 	515.000000 	1058.847778 	94.387497 	828.635254 	771.589111 	0.245157 	0.316484 	
475.000000 	515.369995 	1060.054321 	94.421875 	831.598022 	769.880310 	0.242726 	0.319840 	
476.000000 	515.729980 	1061.794189 	94.333336 	834.684875 	769.437317 	0.240661 	0.322056 	
477.000000 	516.090027 	1056.355225 	94.327087 	832.572327 	763.448975 	0.238060 	0.324733 	
478.000000 	516.450012 	1065.814697 	94.375000 	842.148865 	768.305420 	0.235538 	0.327307 	
479.000000 	516.809998 	1062.524170 	94.163544 	840.890991 	764.019592 	0.233941 	0.329810 	
480.000000 	517.179993 	1077.367188 	94.014587 	855.014954 	772.387024 	0.231156 	0.332790 	
481.000000 	517.539978 	1066.039551 	94.793747 	848.182373 	763.034546 	0.228610 	0.334403 	
482.000000 	517.900024 	1071.892334 	94.905212 	854.402771 	764.452942 	0.226778 	0.338020 	
483.000000 	518.260010 	1075.277954 	94.608337 	858.658142 	764.519897 	0.224963 	0.341086 	
484.000000 	518.619995 	1073.715454 	94.795837 	859.599060 	760.995483 	0.222414 	0.344253 	
485.000000 	518.989990 	1080.959595 	94.540627 	866.917908 	763.906128 	0.220660 	0.347159 	
486.000000 	519.349976 	1081.640869 	94.377083 	869.530334 	762.912048 	0.218281 	0.349092 	
487.000000 	519.710022 	1084.232300 	94.367706 	874.085144 	762.052917 	0.215450 	0.352612 	
488.000000 	520.070007 	1086.342896 	94.346878 	877.452576 	761.757996 	0.213549 	0.354943 	
489.000000 	520.429993 	1084.387573 	94.185417 	877.566833 	758.132507 	0.211617 	0.357913 	
490.000000 	520.789978 	1093.007202 	94.068748 	886.332397 	761.671997 	0.209596 	0.361172 	
491.000000 	521.159973 	1089.160156 	94.013542 	884.694397 	756.711487 	0.207920 	0.364180 	
492.000000 	521.520020 	1094.839111 	93.914581 	891.461548 	758.976746 	0.205500 	0.366391 	
493.000000 	521.880005 	1093.309082 	94.140625 	891.931519 	755.491455 	0.203575 	0.369596 	
494.000000 	522.239990 	1103.733032 	94.181252 	901.892029 	760.479065 	0.201959 	0.372505 	
495.000000 	522.599976 	1108.533813 	94.167709 	908.237976 	761.913269 	0.199287 	0.374961 	
496.000000 	522.960022 	1107.427612 	94.247917 	909.058899 	758.427063 	0.197385 	0.378549 	
497.000000 	523.320007 	1109.083374 	94.320831 	912.090515 	757.373169 	0.195550 	0.381433 	
498.000000 	523.690002 	1111.870850 	94.130211 	916.142517 	756.645325 	0.193627 	0.384904 	
499.000000 	524.049988 	1113.235229 	94.050003 	918.937500 	755.124451 	0.191807 	0.388143 	
500.000000 	524.409973 	1119.032837 	93.940628 	925.620728 	757.341980 	0.189756 	0.390405 	
501.000000 	524.770020 	1118.949219 	93.862503 	926.784058 	754.641846 	0.188425 	0.393902 	
502.000000 	525.130005 	1122.869385 	95.234375 	932.975281 	755.934082 	0.185264 	0.395689 	
503.000000 	525.489990 	1127.914429 	94.902084 	938.050781 	755.477234 	0.184322 	0.400776 	
504.000000 	525.849976 	1129.470703 	94.370834 	941.633728 	754.778076 	0.181888 	0.403080 	
505.000000 	526.210022 	1129.862183 	94.083336 	943.498474 	752.687317 	0.180256 	0.406201 	
506.000000 	526.570007 	1137.044434 	94.126045 	951.296143 	755.101685 	0.178362 	0.409335 	
507.000000 	526.940002 	1140.567139 	94.014587 	955.370605 	754.566956 	0.177182 	0.413137 	
508.000000 	527.299988 	1144.701904 	94.283333 	960.663818 	754.854736 	0.175275 	0.416374 	
509.000000 	527.659973 	1151.754150 	94.451042 	968.327942 	756.880493 	0.173470 	0.419836 	
510.000000 	528.020020 	1146.978149 	94.190628 	966.140625 	751.441956 	0.171576 	0.422892 	
511.000000 	528.380005 	1150.520386 	93.979164 	970.700928 	751.415955 	0.169951 	0.426011 	
512.000000 	528.739990 	1160.607666 	93.952080 	981.089966 	756.087585 	0.168035 	0.428542 	
513.000000 	529.099976 	1163.553467 	94.076042 	985.539307 	754.948425 	0.166045 	0.432585 	
514.000000 	529.460022 	1160.745972 	94.268753 	983.714172 	750.601929 	0.165483 	0.435943 	
515.000000 	529.820007 	1169.950684 	94.226044 	994.492676 	754.260925 	0.162484 	0.438979 	
516.000000 	530.179993 	1170.432129 	94.122917 	995.712280 	751.753174 	0.161670 	0.442720 	
517.000000 	530.539978 	1179.167725 	94.001045 	1005.429626 	754.888062 	0.159394 	0.445995 	
518.000000 	530.900024 	1180.634277 	93.879166 	1008.041870 	753.007263 	0.158042 	0.449732 	
519.000000 	531.260010 	1181.431030 	93.849998 	1010.517639 	751.282043 	0.156263 	0.452700 	
520.000000 	531.619995 	1188.973511 	94.057289 	1018.538757 	753.414978 	0.154722 	0.456230 	
521.000000 	531.979980 	1192.958496 	93.963539 	1023.745544 	753.404419 	0.152968 	0.459589 	
522.000000 	532.349976 	1196.425171 	93.938538 	1027.831299 	752.340271 	0.151887 	0.463905 	
523.000000 	532.710022 	1201.828613 	94.245834 	1034.385986 	753.300903 	0.150036 	0.467134 	
524.000000 	533.070007 	1202.452271 	94.055206 	1036.687988 	751.042603 	0.148332 	0.470656 	
525.000000 	533.429993 	1211.819824 	93.936455 	1046.618042 	754.513550 	0.146559 	0.473805 	
526.000000 	533.789978 	1215.306641 	93.922913 	1050.851563 	753.899902 	0.145396 	0.477492 	
527.000000 	534.150024 	1221.775757 	94.187500 	1058.439819 	755.442932 	0.143509 	0.480757 	
528.000000 	534.510010 	1224.340454 	94.349998 	1061.705688 	754.114685 	0.142526 	0.484613 	
529.000000 	534.869995 	1222.938721 	94.194794 	1061.616577 	750.181274 	0.141464 	0.488697 	
530.000000 	535.229980 	1234.492188 	94.826042 	1073.819458 	755.307129 	0.139438 	0.491291 	
531.000000 	535.590027 	1234.141724 	94.468750 	1074.729492 	751.569275 	0.138307 	0.495968 	
532.000000 	535.950012 	1237.120239 	94.093750 	1078.755737 	750.743774 	0.136978 	0.499477 	
533.000000 	536.309998 	1239.685547 	94.037498 	1083.230713 	749.233704 	0.134910 	0.503562 	
534.000000 	536.669983 	1250.603027 	93.985420 	1093.489014 	753.199341 	0.134252 	0.507051 	
535.000000 	537.030029 	1257.000732 	94.175003 	1101.235229 	754.515747 	0.132296 	0.510407 	
536.000000 	537.390015 	1255.432129 	94.260414 	1100.783936 	750.500977 	0.131457 	0.514494 	
537.000000 	537.750000 	1263.586548 	94.000000 	1109.380615 	752.310852 	0.130152 	0.518560 	
538.000000 	538.109985 	1271.694092 	94.036461 	1118.550415 	754.439636 	0.128316 	0.522130 	
539.000000 	538.469971 	1270.482178 	94.153122 	1118.276978 	750.478943 	0.127607 	0.526440 	
540.000000 	538.830017 	1278.285278 	94.355209 	1127.132324 	752.351868 	0.125843 	0.530071 	
541.000000 	539.179993 	1283.322632 	94.133331 	1132.468384 	752.325928 	0.125053 	0.534039 	
542.000000 	539.539978 	1277.423462 	97.427078 	1128.764404 	745.186523 	0.123722 	0.538966 	
543.000000 	539.900024 	1286.579956 	96.756248 	1138.230103 	747.293213 	0.122513 	0.543285 	
544.000000 	540.260010 	1297.723511 	95.268753 	1149.579590 	750.809509 	0.121215 	0.547215 	
545.000000 	540.619995 	1301.459839 	94.360413 	1154.465698 	750.622742 	0.119849 	0.550339 	
546.000000 	540.979980 	1299.330200 	94.044792 	1153.585938 	746.104675 	0.118974 	0.554739 	
547.000000 	541.340027 	1306.928467 	93.937500 	1161.614258 	747.326599 	0.117869 	0.558933 	
548.000000 	541.700012 	1312.445557 	94.222916 	1168.135010 	747.602600 	0.116484 	0.562776 	
549.000000 	542.059998 	1320.067017 	94.281250 	1176.214722 	749.031799 	0.115381 	0.566656 	
550.000000 	542.419983 	1317.465698 	94.569794 	1175.783081 	744.382385 	0.113776 	0.570910 	
551.000000 	542.780029 	1327.781494 	94.582291 	1185.689331 	746.779663 	0.113185 	0.575494 	
552.000000 	543.140015 	1331.472778 	94.231247 	1190.469849 	745.937744 	0.111938 	0.579399 	
553.000000 	543.500000 	1338.821655 	93.965622 	1198.123047 	746.644165 	0.111033 	0.583956 	
554.000000 	543.859985 	1338.641724 	93.858330 	1199.557617 	743.638977 	0.109703 	0.587855 	
555.000000 	544.219971 	1346.697510 	93.813545 	1207.825684 	744.887573 	0.108833 	0.592177 	
556.000000 	544.570007 	1352.814087 	95.203125 	1215.329224 	746.380005 	0.107172 	0.594707 	
557.000000 	544.929993 	1352.592041 	95.680206 	1215.938477 	742.014343 	0.106506 	0.600409 	
558.000000 	545.289978 	1362.082764 	94.705208 	1225.966431 	743.470337 	0.105286 	0.605441 	
559.000000 	545.650024 	1362.660889 	94.091667 	1227.216309 	740.401245 	0.104691 	0.610003 	
560.000000 	546.010010 	1366.222412 	94.403122 	1231.591187 	739.729492 	0.103743 	0.613520 	
561.000000 	546.369995 	1374.655029 	94.422913 	1240.417969 	740.547180 	0.102754 	0.618568 	
562.000000 	546.729980 	1371.522461 	94.320831 	1238.904175 	735.481323 	0.101694 	0.623151 	
563.000000 	547.090027 	1377.011230 	94.338539 	1244.635864 	734.410400 	0.101072 	0.628603 	
564.000000 	547.450012 	1380.710449 	94.102081 	1249.551880 	733.582703 	0.099813 	0.632413 	
565.000000 	547.799988 	1390.400635 	94.084373 	1258.598022 	735.143860 	0.099594 	0.637281 	
566.000000 	548.159973 	1385.254883 	94.009377 	1255.261597 	729.149841 	0.098540 	0.641760 	
567.000000 	548.520020 	1390.810181 	94.020836 	1261.300781 	729.041687 	0.097743 	0.645911 	
568.000000 	548.880005 	1402.736328 	94.611458 	1274.355591 	732.622253 	0.095984 	0.649550 	
569.000000 	549.239990 	1395.775146 	94.546875 	1268.967285 	724.708008 	0.095246 	0.655437 	
570.000000 	549.599976 	1404.431274 	94.372917 	1277.712280 	726.393921 	0.094562 	0.659296 	
571.000000 	549.960022 	1410.518921 	94.007294 	1283.881958 	725.538879 	0.094069 	0.664798 	
572.000000 	550.309998 	1406.230713 	93.913544 	1280.906372 	720.032654 	0.093345 	0.669372 	
573.000000 	550.669983 	1410.158081 	93.834373 	1285.421875 	718.378113 	0.092615 	0.674461 	
574.000000 	551.030029 	1419.382935 	93.808334 	1294.789917 	718.973206 	0.091874 	0.680153 	
575.000000 	551.390015 	1415.671265 	93.993752 	1292.859619 	714.398132 	0.090747 	0.683919 	
576.000000 	551.750000 	1418.216553 	94.461456 	1296.707886 	712.782043 	0.089571 	0.687980 	
577.000000 	552.109985 	1420.749634 	94.253128 	1298.917358 	709.346863 	0.089653 	0.694595 	
578.000000 	552.460022 	1421.833862 	93.920830 	1301.060425 	707.052551 	0.088768 	0.698598 	
579.000000 	552.820007 	1432.719482 	94.170837 	1312.121216 	709.211792 	0.087929 	0.703176 	
580.000000 	553.179993 	1427.493774 	94.169792 	1307.699463 	702.736755 	0.087651 	0.708694 	
581.000000 	553.539978 	1433.541870 	94.083336 	1314.312744 	702.351990 	0.086834 	0.713469 	
582.000000 	553.900024 	1433.586060 	93.948959 	1315.452148 	698.693420 	0.085999 	0.718722 	
583.000000 	554.250000 	1432.060913 	93.821877 	1315.253174 	694.644409 	0.085085 	0.723470 	
584.000000 	554.609985 	1437.957397 	93.670837 	1321.229126 	694.034058 	0.084661 	0.728458 	
585.000000 	554.969971 	1433.720581 	93.692711 	1317.722656 	688.468689 	0.084368 	0.733559 	
586.000000 	555.330017 	1435.745239 	93.712502 	1320.366455 	685.661987 	0.083775 	0.739055 	
587.000000 	555.690002 	1446.567261 	93.693748 	1331.418213 	687.503540 	0.082949 	0.743882 	
588.000000 	556.039978 	1438.553589 	93.917709 	1324.288574 	680.065430 	0.082763 	0.749204 	
589.000000 	556.400024 	1438.121338 	94.091667 	1325.306030 	676.619202 	0.081694 	0.753984 	
590.000000 	556.760010 	1447.157593 	93.890625 	1334.554321 	677.338196 	0.081004 	0.759186 	
591.000000 	557.119995 	1437.965942 	93.944794 	1326.466553 	669.572632 	0.080711 	0.764345 	
592.000000 	557.469971 	1437.555664 	94.934380 	1327.135498 	666.695496 	0.079921 	0.768366 	
593.000000 	557.830017 	1441.902954 	94.556252 	1331.431274 	663.735596 	0.079709 	0.775835 	
594.000000 	558.190002 	1437.840332 	94.109375 	1328.642334 	659.073792 	0.078984 	0.780062 	
595.000000 	558.549988 	1437.577637 	94.140625 	1328.994629 	655.580017 	0.078537 	0.785194 	
596.000000 	558.900024 	1441.608643 	94.215622 	1333.297974 	653.376221 	0.078104 	0.791362 	
597.000000 	559.260010 	1439.389038 	94.187500 	1331.984131 	648.938599 	0.077549 	0.796636 	
598.000000 	559.619995 	1437.488525 	94.486458 	1330.641968 	644.797791 	0.077236 	0.801716 	
599.000000 	559.979980 	1433.325195 	94.407288 	1326.961426 	639.497620 	0.077105 	0.807069 	
600.000000 	560.330017 	1431.038574 	94.115623 	1325.646851 	634.514832 	0.076500 	0.813295 	
601.000000 	560.690002 	1432.315674 	94.182289 	1327.195557 	631.766602 	0.076224 	0.818528 	
602.000000 	561.049988 	1434.995972 	93.956253 	1329.952881 	629.530701 	0.076018 	0.823943 	
603.000000 	561.409973 	1427.589844 	93.873962 	1324.529419 	622.717346 	0.074930 	0.829650 	
604.000000 	561.760010 	1427.041748 	93.794792 	1323.908081 	618.993774 	0.075016 	0.835264 	
605.000000 	562.119995 	1425.737061 	93.962502 	1323.288696 	615.130432 	0.074569 	0.840610 	
606.000000 	562.479980 	1428.012085 	93.880211 	1325.558960 	612.669250 	0.074449 	0.846213 	
607.000000 	562.830017 	1420.732178 	93.776039 	1319.159790 	605.888062 	0.074178 	0.852232 	
608.000000 	563.190002 	1420.750122 	93.915627 	1320.262207 	603.140381 	0.073355 	0.856790 	
609.000000 	563.549988 	1417.843628 	94.078125 	1318.421875 	598.347412 	0.072701 	0.862720 	
610.000000 	563.900024 	1416.228516 	94.150002 	1316.988647 	593.950562 	0.072649 	0.868957 	
611.000000 	564.260010 	1416.126343 	93.984375 	1317.017944 	590.394958 	0.072555 	0.874889 	
612.000000 	564.619995 	1412.364868 	93.803123 	1314.000244 	586.068604 	0.072189 	0.879584 	
613.000000 	564.979980 	1402.709717 	93.918747 	1305.585815 	578.560059 	0.071754 	0.885619 	
614.000000 	565.330017 	1408.648682 	93.778122 	1311.237793 	578.096863 	0.071660 	0.890645 	
615.000000 	565.690002 	1409.784180 	94.070831 	1312.587646 	574.895996 	0.071436 	0.897003 	
616.000000 	566.049988 	1402.759888 	94.141663 	1306.117432 	568.586609 	0.071383 	0.903043 	
617.000000 	566.400024 	1399.307251 	93.938545 	1303.339844 	564.101685 	0.071047 	0.908498 	
618.000000 	566.760010 	1396.600586 	93.796875 	1301.126953 	559.530823 	0.070810 	0.914698 	
619.000000 	567.119995 	1390.144043 	94.135414 	1295.868042 	554.281982 	0.070227 	0.919489 	
620.000000 	567.469971 	1389.228882 	94.246872 	1295.538940 	550.510193 	0.069822 	0.925659 	
621.000000 	567.830017 	1386.052246 	94.255211 	1292.553833 	546.009460 	0.069839 	0.931579 	
622.000000 	568.179993 	1391.109375 	93.929169 	1298.036743 	544.850159 	0.069249 	0.937346 	
623.000000 	568.539978 	1380.366333 	93.966667 	1287.731079 	537.812134 	0.069467 	0.942595 	
624.000000 	568.900024 	1374.716675 	93.913544 	1282.883667 	531.971802 	0.069138 	0.949413 	
625.000000 	569.250000 	1381.200806 	93.962502 	1289.273926 	531.919006 	0.068874 	0.954217 	
626.000000 	569.609985 	1373.164551 	94.037498 	1282.330078 	525.657593 	0.068439 	0.960223 	
627.000000 	569.969971 	1381.710449 	93.901039 	1290.209229 	525.259827 	0.068518 	0.967185 	
628.000000 	570.320007 	1376.253540 	94.136459 	1285.710083 	520.772217 	0.068054 	0.971807 	
629.000000 	570.679993 	1372.003540 	94.862503 	1282.057373 	516.331543 	0.067806 	0.977278 	
630.000000 	571.030029 	1362.468018 	94.730209 	1273.269165 	508.749146 	0.067710 	0.985098 	
631.000000 	571.390015 	1359.854248 	94.351044 	1270.552368 	504.764709 	0.067926 	0.991040 	
632.000000 	571.750000 	1362.971802 	94.900002 	1274.001709 	502.927185 	0.067505 	0.996977 	
633.000000 	572.099976 	1355.164307 	94.442711 	1266.278320 	497.084473 	0.067841 	1.002918 	
634.000000 	572.460022 	1355.797485 	94.188538 	1267.147217 	494.633728 	0.067622 	1.008328 	
635.000000 	572.809998 	1353.767456 	93.939583 	1265.312134 	490.880524 	0.067573 	1.014446 	
636.000000 	573.169983 	1348.860229 	94.076042 	1261.039917 	486.304382 	0.067323 	1.020180 	
637.000000 	573.530029 	1344.971802 	94.212502 	1257.721558 	482.002167 	0.067071 	1.026180 	
638.000000 	573.880005 	1353.079834 	94.566666 	1266.168579 	482.496368 	0.066388 	1.031166 	
639.000000 	574.239990 	1350.697510 	94.368752 	1263.385254 	478.139954 	0.066826 	1.038473 	
640.000000 	574.590027 	1344.643799 	94.218750 	1258.308472 	473.169830 	0.066361 	1.044430 	
641.000000 	574.950012 	1340.747437 	94.094788 	1254.466553 	468.771515 	0.066517 	1.050867 	
642.000000 	575.309998 	1342.482544 	94.036461 	1255.716431 	466.372772 	0.066814 	1.057291 	
643.000000 	575.659973 	1339.436157 	93.989586 	1253.096802 	462.886505 	0.066631 	1.062522 	
644.000000 	576.020020 	1331.142334 	93.892708 	1245.183960 	456.948059 	0.066754 	1.069223 	
645.000000 	576.369995 	1325.624634 	93.890625 	1240.400269 	452.325684 	0.066450 	1.075237 	
646.000000 	576.729980 	1328.954224 	93.943748 	1243.521606 	450.604065 	0.066445 	1.081559 	
647.000000 	577.080017 	1322.297974 	93.844788 	1237.558105 	445.552490 	0.066231 	1.087811 	
648.000000 	577.440002 	1321.331177 	93.895836 	1236.498535 	442.681335 	0.066356 	1.093545 	
649.000000 	577.789978 	1321.194092 	93.817711 	1237.021484 	439.559448 	0.065829 	1.100518 	
650.000000 	578.150024 	1314.118530 	93.911461 	1229.972656 	434.648315 	0.066175 	1.106384 	
651.000000 	578.500000 	1313.734253 	94.050003 	1229.943237 	432.130432 	0.065906 	1.111901 	
652.000000 	578.859985 	1316.180786 	93.868752 	1231.380737 	429.634521 	0.066598 	1.119555 	
653.000000 	579.210022 	1315.243042 	94.030205 	1231.719238 	427.104584 	0.065610 	1.124748 	
654.000000 	579.570007 	1315.112305 	94.293747 	1231.708496 	424.333954 	0.065520 	1.131156 	
655.000000 	579.929993 	1306.519897 	94.320831 	1223.016113 	418.768311 	0.066047 	1.137805 	
656.000000 	580.280029 	1299.438477 	94.014580 	1216.588867 	413.748993 	0.065881 	1.144428 	
657.000000 	580.640015 	1301.211426 	93.863541 	1218.303467 	411.750580 	0.065836 	1.150633 	
658.000000 	580.989990 	1300.409546 	93.998962 	1217.313477 	408.971680 	0.066033 	1.156788 	
659.000000 	581.349976 	1291.095947 	94.007294 	1208.877930 	403.675873 	0.065799 	1.162634 	
660.000000 	581.700012 	1296.084473 	93.788544 	1213.183594 	402.465271 	0.066100 	1.169495 	
661.000000 	582.049988 	1291.306274 	93.942711 	1209.337402 	398.734467 	0.065582 	1.175114 	
662.000000 	582.409973 	1288.185669 	94.214584 	1206.190552 	395.059326 	0.065768 	1.181954 	
663.000000 	582.760010 	1280.956543 	93.954163 	1198.542480 	390.030609 	0.066501 	1.189137 	
664.000000 	583.119995 	1286.183838 	93.947914 	1204.112305 	389.637421 	0.065937 	1.194218 	
665.000000 	583.469971 	1282.168701 	94.144791 	1200.621704 	385.622070 	0.065713 	1.201450 	
666.000000 	583.830017 	1274.764404 	93.871872 	1193.311646 	380.676483 	0.066029 	1.208567 	
667.000000 	584.179993 	1271.171509 	94.276039 	1189.410889 	377.754395 	0.066481 	1.213450 	
668.000000 	584.539978 	1270.345947 	95.095833 	1189.851929 	375.298187 	0.065461 	1.219324 	
669.000000 	584.890015 	1268.282715 	94.669792 	1186.983643 	371.241089 	0.066248 	1.228568 	
670.000000 	585.250000 	1266.310791 	94.224998 	1185.246094 	368.721191 	0.066157 	1.233822 	
671.000000 	585.599976 	1257.242920 	94.476044 	1176.625122 	363.827759 	0.066271 	1.239996 	
672.000000 	585.960022 	1261.081543 	94.391663 	1179.745850 	362.144745 	0.066671 	1.247681 	
673.000000 	586.309998 	1259.594482 	96.351044 	1179.757446 	360.614166 	0.065481 	1.250736 	
674.000000 	586.659973 	1254.582520 	95.331253 	1173.377808 	354.313324 	0.066916 	1.264377 	
675.000000 	587.020020 	1252.627563 	94.647919 	1172.295288 	352.531433 	0.066279 	1.267859 	
676.000000 	587.369995 	1246.668213 	94.501038 	1165.954102 	348.087006 	0.066935 	1.275777 	
677.000000 	587.729980 	1247.901123 	94.070831 	1167.544556 	346.012329 	0.066560 	1.282744 	
678.000000 	588.080017 	1246.845825 	93.955208 	1166.485107 	343.897522 	0.066622 	1.288029 	
679.000000 	588.440002 	1252.568848 	97.796875 	1174.627563 	345.736267 	0.064245 	1.287275 	
680.000000 	588.789978 	1231.536865 	96.328125 	1151.674194 	333.503937 	0.067046 	1.306364 	
681.000000 	589.140015 	1234.189697 	94.750000 	1154.807983 	332.872833 	0.066481 	1.310409 	
682.000000 	589.500000 	1230.289307 	94.067711 	1150.637939 	330.019257 	0.066933 	1.315854 	
683.000000 	589.849976 	1225.592773 	93.748962 	1146.187988 	326.804840 	0.066983 	1.321816 	
684.000000 	590.210022 	1228.557251 	93.812500 	1149.051758 	325.369019 	0.066904 	1.328636 	
685.000000 	590.559998 	1222.892700 	94.157288 	1143.666626 	322.164459 	0.066980 	1.333912 	
686.000000 	590.909973 	1220.349121 	93.965622 	1141.111084 	318.523499 	0.067134 	1.343196 	
687.000000 	591.270020 	1213.152832 	93.716667 	1133.822510 	314.409973 	0.067628 	1.350280 	
688.000000 	591.619995 	1208.154053 	93.680206 	1128.708984 	311.166534 	0.068019 	1.356521 	
689.000000 	591.979980 	1207.514893 	93.916664 	1127.998047 	309.187134 	0.068120 	1.362373 	
690.000000 	592.330017 	1208.586060 	93.817711 	1129.357300 	307.105652 	0.067802 	1.370015 	
691.000000 	592.679993 	1196.685547 	93.629166 	1117.881592 	301.962677 	0.068120 	1.377007 	
692.000000 	593.039978 	1195.368286 	93.685417 	1116.875366 	299.902069 	0.067920 	1.382754 	
693.000000 	593.390015 	1194.185669 	93.659370 	1115.480957 	297.092255 	0.068179 	1.391177 	
694.000000 	593.739990 	1184.484741 	93.824997 	1106.300537 	292.766846 	0.068286 	1.397686 	
695.000000 	594.099976 	1185.218628 	94.002083 	1106.447388 	291.024536 	0.068773 	1.404275 	
696.000000 	594.450012 	1177.827881 	93.946877 	1099.848022 	287.131927 	0.068500 	1.411486 	
697.000000 	594.799988 	1175.904297 	94.192711 	1097.930542 	284.717621 	0.068610 	1.418295 	
698.000000 	595.159973 	1173.523071 	93.921875 	1094.945190 	281.881927 	0.069306 	1.426278 	
699.000000 	595.510010 	1165.890991 	94.493752 	1088.107910 	279.123657 	0.069045 	1.429586 	
700.000000 	595.859985 	1156.736816 	94.166664 	1078.837891 	273.756165 	0.069718 	1.441120 	
701.000000 	596.219971 	1158.123657 	93.803123 	1080.005371 	272.651764 	0.069835 	1.446361 	
702.000000 	596.570007 	1147.498901 	93.883331 	1070.280273 	268.355255 	0.069664 	1.453028 	
703.000000 	596.919983 	1141.868408 	93.757294 	1064.976196 	265.177490 	0.069713 	1.460021 	
704.000000 	597.280029 	1139.015137 	94.071877 	1062.683228 	263.281372 	0.069367 	1.464696 	
705.000000 	597.630005 	1138.911377 	93.935417 	1061.887329 	260.887939 	0.070025 	1.473737 	
706.000000 	597.979980 	1127.389526 	93.662498 	1050.989136 	256.641846 	0.070173 	1.479979 	
707.000000 	598.340027 	1117.687378 	93.709373 	1041.715576 	252.779755 	0.070393 	1.486499 	
708.000000 	598.690002 	1114.685425 	93.709373 	1039.140625 	250.446060 	0.070178 	1.493084 	
709.000000 	599.039978 	1107.564453 	94.650002 	1032.342651 	248.195099 	0.070333 	1.495704 	
710.000000 	599.390015 	1099.960693 	94.338539 	1024.542114 	243.284821 	0.071029 	1.508797 	
711.000000 	599.750000 	1093.159668 	94.695831 	1018.680298 	241.363953 	0.070564 	1.510521 	
712.000000 	600.099976 	1086.214600 	94.217712 	1011.297607 	237.186096 	0.071465 	1.521609 	
713.000000 	600.450012 	1079.189453 	93.807289 	1004.640442 	234.494339 	0.071580 	1.526534 	
714.000000 	600.809998 	1074.739746 	93.944794 	1000.051819 	232.331299 	0.072027 	1.531669 	
715.000000 	601.159973 	1067.813843 	93.772919 	993.249268 	229.049362 	0.072387 	1.539431 	
716.000000 	601.510010 	1059.729004 	93.787498 	985.762512 	226.071747 	0.072353 	1.544916 	
717.000000 	601.859985 	1052.092896 	93.988541 	978.739319 	222.821777 	0.072271 	1.552165 	
718.000000 	602.219971 	1046.112305 	93.848961 	972.590820 	219.822235 	0.072873 	1.560017 	
719.000000 	602.570007 	1051.743774 	93.867706 	977.545898 	220.056747 	0.073160 	1.564319 	
720.000000 	602.919983 	1038.694458 	93.914581 	964.998474 	215.922913 	0.073593 	1.570798 	
721.000000 	603.270020 	1035.690430 	94.090622 	962.693481 	214.414810 	0.073088 	1.574911 	
722.000000 	603.630005 	1029.796631 	94.052086 	956.709290 	211.671280 	0.073617 	1.582082 	
723.000000 	603.979980 	1025.129517 	93.768753 	951.530701 	209.442657 	0.074502 	1.588124 	
724.000000 	604.330017 	1025.727661 	93.984375 	952.500244 	208.821609 	0.074067 	1.591677 	
725.000000 	604.679993 	1017.324524 	93.906250 	944.451111 	205.544296 	0.074327 	1.599270 	
726.000000 	605.030029 	1007.216675 	93.719795 	934.549500 	202.239990 	0.074882 	1.605491 	
727.000000 	605.390015 	1006.271851 	93.815628 	934.055969 	201.287094 	0.074471 	1.609275 	
728.000000 	605.739990 	1001.454102 	93.754166 	929.012329 	199.051270 	0.075086 	1.615646 	
729.000000 	606.090027 	999.004211 	93.901039 	926.484192 	197.626129 	0.075362 	1.620382 	
730.000000 	606.440002 	996.196655 	93.765625 	924.272461 	195.963181 	0.074938 	1.626018 	
731.000000 	606.799988 	985.532776 	93.643753 	913.964172 	193.127441 	0.075391 	1.629832 	
732.000000 	607.150024 	985.012146 	93.765625 	913.671326 	192.099594 	0.075183 	1.634640 	
733.000000 	607.500000 	976.517517 	93.937500 	905.324463 	189.640762 	0.075699 	1.638861 	
734.000000 	607.849976 	971.749512 	93.912498 	900.675598 	187.903259 	0.075953 	1.643171 	
735.000000 	608.200012 	972.476318 	93.711456 	901.047607 	187.139633 	0.076288 	1.647991 	
736.000000 	608.549988 	961.374695 	93.607292 	890.637024 	184.289444 	0.076427 	1.651857 	
737.000000 	608.909973 	957.606262 	94.893753 	887.512512 	184.217117 	0.076014 	1.648322 	
738.000000 	609.260010 	958.029358 	94.629166 	887.514587 	181.971924 	0.076454 	1.661026 	
739.000000 	609.609985 	944.974609 	94.121872 	875.028687 	178.976486 	0.076901 	1.663904 	
740.000000 	609.960022 	943.333313 	93.741669 	873.123108 	178.237686 	0.077343 	1.666302 	
741.000000 	610.309998 	938.064148 	93.627083 	868.210449 	176.813141 	0.077384 	1.668725 	
742.000000 	610.659973 	933.409546 	93.830208 	863.881714 	175.451309 	0.077408 	1.671482 	
743.000000 	611.020020 	928.578613 	93.872917 	858.270813 	173.759140 	0.078735 	1.675985 	
744.000000 	611.369995 	923.014771 	93.712502 	853.352844 	172.225540 	0.078472 	1.678841 	
745.000000 	611.719971 	920.979614 	93.572914 	851.340698 	171.667297 	0.078626 	1.679880 	
746.000000 	612.070007 	912.723206 	93.913544 	844.530762 	170.023956 	0.077652 	1.680493 	
747.000000 	612.419983 	907.423767 	94.043747 	839.057983 	168.463318 	0.078330 	1.683891 	
748.000000 	612.770020 	896.998596 	94.085419 	829.054321 	166.113495 	0.078768 	1.686383 	
749.000000 	613.119995 	896.963013 	94.023956 	829.095947 	165.794525 	0.078679 	1.688265 	
750.000000 	613.479980 	892.971191 	96.051041 	825.744446 	166.686996 	0.078269 	1.678436 	
751.000000 	613.830017 	885.000427 	95.119789 	816.969421 	161.595978 	0.079987 	1.700489 	
752.000000 	614.179993 	877.282715 	94.694794 	810.300110 	161.615540 	0.079424 	1.691609 	
753.000000 	614.530029 	873.801758 	94.343750 	807.088623 	160.210052 	0.079420 	1.696368 	
754.000000 	614.880005 	866.903442 	93.852081 	800.276917 	159.338684 	0.079969 	1.693895 	
755.000000 	615.229980 	865.664734 	93.576042 	799.008057 	158.867981 	0.080127 	1.695424 	
756.000000 	615.580017 	856.368591 	93.535416 	790.518555 	157.311874 	0.080012 	1.694470 	
757.000000 	615.929993 	855.276123 	93.465622 	789.396851 	157.323502 	0.080155 	1.693120 	
758.000000 	616.280029 	842.717468 	93.656250 	777.500549 	155.128540 	0.080547 	1.692378 	
759.000000 	616.640015 	840.712036 	93.686462 	775.009583 	154.542343 	0.081374 	1.693781 	
760.000000 	616.989990 	836.250977 	93.618752 	771.186340 	153.729614 	0.080998 	1.693733 	
761.000000 	617.340027 	825.311401 	93.765625 	760.786621 	152.372955 	0.081408 	1.689430 	
762.000000 	617.690002 	822.620789 	93.917709 	758.009583 	152.030655 	0.081800 	1.688413 	
763.000000 	618.039978 	818.114929 	93.889580 	753.687683 	151.391937 	0.082025 	1.687130 	
764.000000 	618.390015 	814.256104 	93.679169 	750.075378 	150.776260 	0.082101 	1.686478 	
765.000000 	618.739990 	806.681763 	93.942711 	743.276611 	149.994797 	0.081861 	1.682329 	
766.000000 	619.090027 	802.074646 	94.009377 	738.653137 	149.125946 	0.082373 	1.682410 	
767.000000 	619.440002 	796.751892 	93.746872 	733.492920 	148.308014 	0.082726 	1.681252 	
768.000000 	619.789978 	791.939941 	93.763542 	728.566589 	147.943527 	0.083406 	1.677655 	
769.000000 	620.140015 	786.945801 	93.811462 	724.242493 	147.692352 	0.083033 	1.673028 	
770.000000 	620.489990 	781.854919 	93.795837 	719.305847 	147.106888 	0.083383 	1.670510 	
771.000000 	620.840027 	777.072510 	94.768753 	715.573303 	147.800812 	0.082450 	1.659668 	
772.000000 	621.190002 	769.737488 	94.369789 	707.555237 	145.076950 	0.084234 	1.668785 	
773.000000 	621.539978 	765.945679 	94.063545 	704.620544 	145.729935 	0.083452 	1.659356 	
774.000000 	621.890015 	759.946106 	93.691666 	699.004944 	145.249634 	0.083590 	1.654794 	
775.000000 	622.239990 	754.640320 	93.941666 	693.834473 	145.485504 	0.084008 	1.646165 	
776.000000 	622.590027 	750.193665 	93.914581 	689.514404 	144.565857 	0.084344 	1.646596 	
777.000000 	622.940002 	745.828186 	93.644791 	685.720581 	144.703583 	0.084025 	1.639808 	
778.000000 	623.289978 	739.318237 	93.682289 	679.537048 	144.544342 	0.084317 	1.632142 	
779.000000 	623.640015 	734.134827 	93.847916 	674.404907 	144.449371 	0.084862 	1.625764 	
780.000000 	623.989990 	729.231140 	93.771873 	669.909363 	143.793884 	0.084848 	1.623610 	
781.000000 	624.340027 	724.021667 	93.783333 	665.068359 	143.740036 	0.084931 	1.616815 	
782.000000 	624.690002 	720.276123 	93.696877 	661.473572 	143.787903 	0.085165 	1.611295 	
783.000000 	625.039978 	714.352478 	93.526039 	655.709778 	143.882660 	0.085658 	1.602378 	
784.000000 	625.390015 	711.862122 	93.634377 	653.640625 	144.641174 	0.085327 	1.593628 	
785.000000 	625.739990 	706.998047 	93.598961 	649.179993 	144.087448 	0.085318 	1.590608 	
786.000000 	626.090027 	700.325256 	93.437500 	642.510803 	144.018478 	0.086161 	1.581603 	
787.000000 	626.440002 	696.892395 	93.664581 	639.637695 	144.518570 	0.085729 	1.573223 	
788.000000 	626.789978 	691.775208 	94.057289 	635.275085 	144.651947 	0.085203 	1.564930 	
789.000000 	627.140015 	683.974731 	93.862503 	627.339783 	143.658157 	0.086433 	1.560484 	
790.000000 	627.489990 	684.145020 	95.068748 	628.174438 	146.403534 	0.085352 	1.541803 	
791.000000 	627.840027 	674.851563 	94.573959 	618.769775 	143.803757 	0.086760 	1.546043 	
792.000000 	628.190002 	672.032532 	94.280205 	616.977722 	145.215988 	0.085474 	1.532084 	
793.000000 	628.539978 	667.317078 	94.116669 	611.785583 	145.144745 	0.086884 	1.525534 	
794.000000 	628.890015 	662.816284 	94.236458 	607.610718 	145.129852 	0.086963 	1.518869 	
795.000000 	629.239990 	659.021973 	93.893753 	604.339783 	146.110596 	0.086620 	1.506393 	
796.000000 	629.590027 	654.931885 	93.671875 	600.592896 	146.520523 	0.086614 	1.497366 	
797.000000 	629.940002 	651.668030 	93.606247 	596.948853 	147.194839 	0.087704 	1.487778 	
798.000000 	630.289978 	646.963745 	93.762497 	592.672729 	147.992935 	0.087648 	1.475125 	
799.000000 	630.640015 	641.454468 	93.607292 	587.872253 	147.881287 	0.087229 	1.467329 	
800.000000 	630.979980 	637.359558 	93.491669 	583.991272 	148.549637 	0.087448 	1.456415 	
801.000000 	631.330017 	634.296753 	93.550003 	581.696594 	149.280975 	0.086568 	1.446687 	
802.000000 	631.679993 	631.840088 	93.554169 	578.977112 	150.493652 	0.087374 	1.434716 	
803.000000 	632.030029 	627.022278 	93.512497 	574.742065 	150.848373 	0.087060 	1.424706 	
804.000000 	632.380005 	623.068604 	94.421875 	571.565063 	152.367249 	0.086278 	1.408363 	
805.000000 	632.729980 	618.716858 	94.303123 	567.036072 	152.061005 	0.087224 	1.403366 	
806.000000 	633.080017 	613.951538 	94.030205 	562.552185 	152.748596 	0.087432 	1.391123 	
807.000000 	633.429993 	610.108521 	94.573959 	559.627747 	154.342346 	0.086365 	1.374464 	
808.000000 	633.780029 	607.826233 	94.738541 	557.150696 	154.715256 	0.087053 	1.368303 	
809.000000 	634.119995 	600.730530 	94.037498 	550.241455 	154.207062 	0.087790 	1.359850 	
810.000000 	634.469971 	599.161011 	93.675003 	549.073853 	155.834244 	0.087297 	1.346737 	
811.000000 	634.820007 	595.222168 	93.902084 	545.714966 	157.352264 	0.086838 	1.330448 	
812.000000 	635.169983 	590.966003 	93.912498 	541.696045 	157.616852 	0.087054 	1.321591 	
813.000000 	635.520020 	585.692444 	93.851044 	537.114868 	158.207108 	0.086583 	1.308890 	
814.000000 	635.869995 	582.773926 	93.702087 	534.133728 	159.307159 	0.087153 	1.296965 	
815.000000 	636.219971 	579.299988 	93.831245 	531.052856 	160.370377 	0.086959 	1.284334 	
816.000000 	636.559998 	576.362122 	93.653122 	527.987244 	161.275131 	0.087664 	1.273624 	
817.000000 	636.909973 	573.297607 	93.541664 	525.474243 	162.777893 	0.087104 	1.259018 	
818.000000 	637.260010 	568.217163 	93.983337 	521.374023 	163.518295 	0.086036 	1.245579 	
819.000000 	637.609985 	563.051636 	94.203125 	516.054260 	164.213181 	0.087159 	1.232206 	
820.000000 	637.960022 	560.614685 	93.882294 	513.805237 	164.923141 	0.087190 	1.223554 	
821.000000 	638.309998 	558.372559 	93.798958 	511.868652 	166.794525 	0.086958 	1.208264 	
822.000000 	638.650024 	551.449646 	93.652084 	505.759277 	166.717484 	0.086490 	1.196250 	
823.000000 	639.000000 	548.359802 	93.655212 	502.571503 	168.101318 	0.087193 	1.182364 	
824.000000 	639.349976 	546.668274 	93.961456 	501.286285 	169.752670 	0.086665 	1.169499 	
825.000000 	639.700012 	543.763855 	93.810417 	498.577087 	170.685776 	0.086757 	1.158690 	
826.000000 	640.049988 	538.902466 	93.974998 	494.024445 	171.905975 	0.086949 	1.142587 	
827.000000 	640.390015 	537.005859 	93.846878 	492.087219 	172.819427 	0.087353 	1.133761 	
828.000000 	640.739990 	532.857666 	93.545837 	488.355316 	173.873734 	0.087211 	1.119925 	
829.000000 	641.090027 	529.267761 	93.618752 	485.440338 	175.553528 	0.086438 	1.103550 	
830.000000 	641.440002 	528.773560 	96.936462 	486.320923 	180.164078 	0.083692 	1.076692 	
831.000000 	641.789978 	519.744934 	95.689583 	476.295654 	175.479431 	0.087299 	1.085816 	
832.000000 	642.130005 	519.768005 	94.406250 	476.753967 	178.555161 	0.086382 	1.068485 	
833.000000 	642.479980 	514.665588 	94.029167 	471.642426 	179.316483 	0.087296 	1.054365 	
834.000000 	642.830017 	512.301147 	94.134377 	470.130981 	180.934097 	0.085901 	1.040780 	
835.000000 	643.179993 	508.960907 	93.908333 	466.587128 	181.842758 	0.086926 	1.029229 	
836.000000 	643.520020 	505.394745 	93.818748 	463.490906 	183.398102 	0.086553 	1.013680 	
837.000000 	643.869995 	501.718292 	93.942711 	459.893677 	184.311096 	0.087043 	1.001413 	
838.000000 	644.219971 	500.653534 	93.705208 	458.857849 	185.862183 	0.087174 	0.990909 	
839.000000 	644.570007 	495.068756 	93.837502 	454.198853 	186.559784 	0.086162 	0.975945 	
840.000000 	644.909973 	491.019348 	93.904167 	450.356049 	187.265945 	0.086445 	0.963954 	
841.000000 	645.260010 	489.803253 	94.099998 	449.247742 	189.429886 	0.086429 	0.949985 	
842.000000 	645.609985 	485.512665 	93.820831 	445.418365 	189.953629 	0.086192 	0.938426 	
843.000000 	645.960022 	481.434082 	93.772919 	441.639008 	191.050995 	0.086277 	0.924229 	
844.000000 	646.299988 	480.932861 	93.621872 	441.311066 	193.062363 	0.085978 	0.912714 	
845.000000 	646.650024 	477.127747 	93.481247 	437.858521 	194.108429 	0.085888 	0.899367 	
846.000000 	647.000000 	473.177582 	95.841667 	435.232178 	196.860504 	0.083591 	0.876975 	
847.000000 	647.349976 	468.798798 	95.442711 	430.556152 	195.144791 	0.085096 	0.876432 	
848.000000 	647.690002 	466.626587 	94.297920 	428.339020 	196.404251 	0.085614 	0.865354 	
849.000000 	648.039978 	463.966675 	94.339584 	426.490540 	198.571823 	0.084223 	0.848662 	
850.000000 	648.390015 	463.492798 	95.830208 	426.453308 	201.760010 	0.083288 	0.831712 	
851.000000 	648.729980 	454.545135 	95.546875 	417.449707 	198.819427 	0.085133 	0.826900 	
852.000000 	649.080017 	453.637451 	94.801041 	416.731354 	200.707657 	0.084857 	0.815449 	
853.000000 	649.429993 	450.276459 	94.351044 	413.502380 	201.637009 	0.085198 	0.803393 	
854.000000 	649.770020 	447.293884 	94.021873 	410.829254 	202.833557 	0.085038 	0.790830 	
855.000000 	650.119995 	445.605957 	93.782295 	409.000671 	204.390533 	0.085718 	0.779402 	
856.000000 	650.469971 	440.437408 	93.614586 	404.438263 	204.294113 	0.085269 	0.768208 	
857.000000 	650.809998 	437.794128 	93.534378 	402.098572 	205.302048 	0.085052 	0.757267 	
858.000000 	651.159973 	436.032410 	93.720833 	400.661560 	207.249817 	0.084599 	0.743792 	
859.000000 	651.510010 	433.720306 	94.748955 	398.688538 	209.157562 	0.084219 	0.729312 	
860.000000 	651.849976 	426.976410 	94.758331 	392.508148 	207.202530 	0.084172 	0.723032 	
861.000000 	652.200012 	429.056213 	94.269791 	394.168274 	210.596512 	0.084810 	0.711644 	
862.000000 	652.549988 	420.537994 	93.800003 	386.375580 	208.649460 	0.084725 	0.700879 	
863.000000 	652.890015 	419.834839 	93.585419 	385.973114 	210.620010 	0.084094 	0.689806 	
864.000000 	653.239990 	415.825989 	93.662498 	382.117035 	210.909790 	0.084540 	0.678836 	
865.000000 	653.590027 	413.568695 	93.569794 	379.826813 	211.794342 	0.085108 	0.669208 	
866.000000 	653.929993 	408.729736 	93.462502 	375.243744 	211.701080 	0.085479 	0.657879 	
867.000000 	654.280029 	406.004486 	93.456253 	373.008514 	212.607880 	0.084763 	0.646915 	
868.000000 	654.630005 	404.536469 	94.032288 	371.864288 	214.322052 	0.084213 	0.635262 	
869.000000 	654.969971 	397.221680 	93.970833 	364.508148 	211.821014 	0.085946 	0.628753 	
870.000000 	655.320007 	395.090668 	93.658333 	362.920654 	213.006882 	0.084931 	0.617791 	
871.000000 	655.659973 	391.421509 	93.431252 	359.147156 	212.964401 	0.086053 	0.608660 	
872.000000 	656.010010 	388.990723 	93.626045 	357.410309 	213.912003 	0.084671 	0.597991 	
873.000000 	656.359985 	385.327240 	93.781250 	353.742615 	213.853531 	0.085524 	0.588802 	
874.000000 	656.700012 	382.630554 	93.817711 	351.547638 	214.365982 	0.084725 	0.579385 	
875.000000 	657.049988 	379.685944 	94.082291 	348.406342 	214.823135 	0.085975 	0.569530 	
876.000000 	657.390015 	374.715820 	93.997917 	343.636749 	213.573822 	0.086583 	0.562185 	
877.000000 	657.739990 	371.263947 	93.844795 	340.877930 	213.629669 	0.085389 	0.552669 	
878.000000 	658.090027 	368.213928 	94.458336 	337.930298 	214.260681 	0.085824 	0.541471 	
879.000000 	658.429993 	364.724579 	94.254166 	334.324249 	213.240936 	0.087031 	0.536720 	
880.000000 	658.780029 	363.340637 	93.740623 	333.339478 	214.666977 	0.086180 	0.526253 	
881.000000 	659.119995 	359.847412 	93.702087 	329.643372 	214.387039 	0.087669 	0.517897 	
882.000000 	659.469971 	355.461761 	93.650002 	325.765900 	213.470657 	0.087239 	0.509919 	
883.000000 	659.809998 	354.574890 	94.078125 	325.221313 	215.131119 	0.086414 	0.499672 	
884.000000 	660.159973 	350.387665 	94.070831 	321.177460 	213.916122 	0.087047 	0.493456 	
885.000000 	660.510010 	347.179138 	94.090622 	318.343475 	213.919693 	0.086710 	0.484241 	
886.000000 	660.849976 	344.790497 	93.775002 	315.869324 	213.738037 	0.087608 	0.478186 	
887.000000 	661.200012 	340.291199 	93.719795 	311.940430 	212.389999 	0.086989 	0.471377 	
888.000000 	661.539978 	339.105713 	93.951042 	310.901245 	213.694061 	0.086837 	0.461767 	
889.000000 	661.890015 	335.112030 	93.823959 	306.742523 	212.358643 	0.088456 	0.456189 	
890.000000 	662.229980 	334.453461 	93.938538 	306.326233 	213.891891 	0.087847 	0.447027 	
891.000000 	662.580017 	330.466797 	93.886459 	302.466370 	212.701584 	0.088536 	0.440616 	
892.000000 	662.919983 	326.906006 	93.787498 	299.174988 	211.799454 	0.088644 	0.434033 	
893.000000 	663.270020 	325.420868 	93.778122 	298.065063 	212.353943 	0.087808 	0.426865 	
894.000000 	663.609985 	322.758057 	93.717705 	295.356720 	212.064362 	0.088719 	0.420013 	
895.000000 	663.960022 	319.571777 	93.561462 	292.195374 	211.334198 	0.089560 	0.413541 	
896.000000 	664.299988 	317.417206 	93.738541 	290.305206 	211.537003 	0.089284 	0.405817 	
897.000000 	664.650024 	315.380615 	93.659378 	288.401428 	211.279755 	0.089427 	0.400597 	
898.000000 	664.989990 	312.019653 	93.645836 	285.067230 	210.401443 	0.090341 	0.394049 	
899.000000 	665.340027 	309.192078 	93.716667 	282.606628 	209.671371 	0.089907 	0.388421 	
900.000000 	665.679993 	306.955780 	93.792709 	280.437958 	209.683929 	0.090351 	0.381103 	
901.000000 	666.030029 	304.098083 	93.597916 	277.793549 	208.896103 	0.090472 	0.375514 	
902.000000 	666.369995 	302.302338 	93.854164 	276.102081 	209.096924 	0.090657 	0.368630 	
903.000000 	666.719971 	299.163513 	93.681252 	273.092621 	207.566574 	0.091179 	0.365538 	
904.000000 	667.059998 	297.366455 	93.501038 	271.349518 	207.565262 	0.091558 	0.359519 	
905.000000 	667.409973 	293.570587 	93.585419 	267.886749 	206.197739 	0.091554 	0.353282 	
906.000000 	667.750000 	292.228241 	93.581253 	266.715332 	206.269836 	0.091353 	0.348350 	
907.000000 	668.090027 	289.978821 	93.610420 	264.380493 	205.910782 	0.092419 	0.342365 	
908.000000 	668.440002 	287.761047 	93.836456 	262.443085 	205.519516 	0.092096 	0.336589 	
909.000000 	668.780029 	285.361298 	93.667709 	259.784576 	204.556747 	0.093904 	0.332911 	
910.000000 	669.130005 	282.181000 	93.762497 	257.325012 	203.635864 	0.092209 	0.326215 	
911.000000 	669.469971 	279.700653 	93.795830 	254.660416 	202.576447 	0.093789 	0.322603 	
912.000000 	669.820007 	276.536591 	94.035416 	251.751511 	201.286316 	0.093901 	0.317615 	
913.000000 	670.159973 	274.353882 	93.759377 	249.287781 	200.377029 	0.095811 	0.314218 	
914.000000 	670.510010 	272.754486 	93.743752 	248.193176 	200.368210 	0.094365 	0.308415 	
915.000000 	670.849976 	271.387512 	93.775002 	246.905121 	200.134247 	0.094543 	0.304559 	
916.000000 	671.190002 	267.351715 	93.969795 	243.109756 	198.035095 	0.095052 	0.300121 	
917.000000 	671.539978 	264.322205 	93.638542 	240.097244 	196.436462 	0.096125 	0.296830 	
918.000000 	671.880005 	263.828125 	93.821877 	239.992325 	197.322144 	0.094691 	0.290460 	
919.000000 	672.229980 	260.751587 	93.966667 	236.939575 	195.561600 	0.095763 	0.287693 	
920.000000 	672.570007 	257.920532 	93.936455 	234.278885 	194.422241 	0.096139 	0.282619 	
921.000000 	672.909973 	256.536713 	93.813538 	232.918274 	193.852219 	0.096584 	0.280176 	
922.000000 	673.260010 	253.745544 	93.773956 	229.776611 	192.312454 	0.099225 	0.277211 	
923.000000 	673.599976 	251.229462 	93.713539 	227.411453 	191.198959 	0.099606 	0.273052 	
924.000000 	673.950012 	249.022537 	93.723961 	225.318085 	190.208099 	0.100030 	0.269424 	
925.000000 	674.289978 	247.941422 	93.702080 	224.283707 	190.077271 	0.100281 	0.265762 	
926.000000 	674.630005 	245.172668 	93.864586 	221.674057 	188.419662 	0.100755 	0.263291 	
927.000000 	674.979980 	242.473953 	93.832291 	219.054077 	186.961731 	0.101576 	0.259990 	
928.000000 	675.320007 	241.121582 	94.041664 	217.829346 	186.644196 	0.101590 	0.256097 	
929.000000 	675.659973 	237.814499 	93.762497 	214.455109 	184.488037 	0.103390 	0.253906 	
930.000000 	676.010010 	236.126801 	93.661461 	212.865250 	183.998871 	0.103710 	0.249439 	
931.000000 	676.349976 	233.766922 	93.614586 	210.552460 	182.478897 	0.104590 	0.247690 	
932.000000 	676.690002 	231.809494 	93.456253 	208.950562 	181.429077 	0.103818 	0.245051 	
933.000000 	677.039978 	230.149673 	93.402084 	207.416107 	180.672913 	0.104003 	0.242042 	
934.000000 	677.380005 	227.202621 	93.359375 	204.395737 	178.946060 	0.105784 	0.238758 	
935.000000 	677.719971 	225.795746 	93.375000 	203.509659 	178.147278 	0.103918 	0.237020 	
936.000000 	678.070007 	222.807709 	93.363541 	200.396683 	176.423416 	0.106010 	0.233422 	
937.000000 	678.409973 	221.267166 	93.333336 	198.941101 	175.723190 	0.106362 	0.230461 	
938.000000 	678.750000 	219.553375 	93.490623 	197.546875 	174.583282 	0.105619 	0.229194 	
939.000000 	679.099976 	217.566788 	93.892708 	195.633438 	173.575775 	0.106263 	0.225892 	
940.000000 	679.440002 	213.515793 	93.748962 	191.268082 	170.351578 	0.110035 	0.225846 	
941.000000 	679.780029 	212.762497 	93.518753 	191.055679 	170.222015 	0.107612 	0.223073 	
942.000000 	680.130005 	211.045547 	93.442711 	189.144226 	169.329025 	0.109564 	0.220231 	
943.000000 	680.469971 	209.187454 	93.601044 	187.362595 	168.041901 	0.110185 	0.219018 	
944.000000 	680.809998 	206.642700 	93.863541 	184.972824 	166.175049 	0.110782 	0.217949 	
945.000000 	681.150024 	204.874329 	94.085419 	183.014587 	164.823273 	0.112831 	0.217523 	
946.000000 	681.500000 	202.910416 	94.008331 	181.430298 	163.798187 	0.111893 	0.214129 	
947.000000 	681.840027 	201.478333 	94.129166 	180.072540 	162.840393 	0.112322 	0.212911 	
948.000000 	682.179993 	199.105545 	93.905212 	177.373764 	161.230118 	0.115576 	0.211002 	
949.000000 	682.530029 	196.491287 	93.748955 	175.035706 	159.104309 	0.115628 	0.211058 	
950.000000 	682.869995 	196.070374 	93.940628 	174.745163 	159.233826 	0.115145 	0.208100 	
951.000000 	683.210022 	193.684998 	93.881248 	172.372726 	157.490494 	0.116574 	0.206868 	
952.000000 	683.549988 	191.640869 	93.646873 	170.395737 	156.029755 	0.117500 	0.205576 	
953.000000 	683.900024 	190.862579 	93.710419 	169.642426 	155.618393 	0.117861 	0.204147 	
954.000000 	684.239990 	187.206635 	93.709373 	166.071304 	152.579758 	0.119796 	0.204525 	
955.000000 	684.580017 	186.573456 	93.576042 	165.203506 	152.492981 	0.121647 	0.201706 	
956.000000 	684.919983 	184.941498 	93.512497 	163.750565 	151.273911 	0.121695 	0.200947 	
957.000000 	685.270020 	183.468674 	93.608330 	162.448486 	150.291672 	0.121683 	0.199466 	
958.000000 	685.609985 	181.013382 	93.578125 	159.943466 	148.126221 	0.123750 	0.200506 	
959.000000 	685.950012 	179.006668 	93.927086 	158.295639 	146.768021 	0.122959 	0.198570 	
960.000000 	686.289978 	178.447784 	94.323959 	157.787399 	146.726044 	0.123047 	0.195729 	
961.000000 	686.630005 	175.554459 	94.151039 	154.603500 	143.944061 	0.127085 	0.198524 	
962.000000 	686.979980 	174.223160 	93.945831 	153.130295 	142.842758 	0.129048 	0.198593 	
963.000000 	687.320007 	172.800293 	93.973961 	152.106155 	141.929306 	0.127558 	0.196807 	
964.000000 	687.659973 	171.060913 	93.727081 	150.234848 	140.471283 	0.129820 	0.197017 	
965.000000 	688.000000 	170.579910 	93.514580 	149.783142 	140.420746 	0.130015 	0.194561 	
966.000000 	688.340027 	168.222122 	93.346878 	147.445740 	138.487366 	0.131825 	0.194506 	
967.000000 	688.690002 	166.695206 	93.501038 	146.340439 	137.281570 	0.130231 	0.194133 	
968.000000 	689.030029 	165.399628 	93.459373 	144.871307 	136.161285 	0.132519 	0.194524 	
969.000000 	689.369995 	162.979126 	93.371880 	142.480957 	134.376495 	0.134414 	0.192976 	
970.000000 	689.710022 	162.001251 	93.425003 	141.759659 	133.548370 	0.133471 	0.193141 	
971.000000 	690.049988 	159.645660 	93.689583 	139.415527 	131.728348 	0.135498 	0.192215 	
972.000000 	690.400024 	158.496750 	93.568748 	138.236359 	130.700821 	0.136769 	0.192823 	
973.000000 	690.739990 	156.851288 	93.630203 	136.596497 	129.304581 	0.138267 	0.193128 	
974.000000 	691.080017 	154.890503 	93.650002 	134.757385 	127.705437 	0.139242 	0.192992 	
975.000000 	691.419983 	153.867004 	93.643753 	133.768753 	126.835052 	0.139976 	0.193201 	
976.000000 	691.760010 	152.664749 	93.775002 	132.673859 	125.977715 	0.140350 	0.192140 	
977.000000 	692.099976 	150.394577 	93.804169 	130.550949 	123.958878 	0.141499 	0.193312 	
978.000000 	692.440002 	149.008453 	93.563545 	129.011459 	122.748955 	0.144102 	0.193862 	
979.000000 	692.789978 	148.250122 	93.603127 	128.304260 	122.415352 	0.144496 	0.191481 	
980.000000 	693.130005 	146.750702 	93.526039 	127.088165 	121.090263 	0.143854 	0.192199 	
981.000000 	693.469971 	144.872589 	93.385414 	125.009468 	119.329254 	0.147465 	0.193968 	
982.000000 	693.809998 	143.925919 	93.614586 	124.078598 	118.543022 	0.148384 	0.194023 	
983.000000 	694.150024 	143.152420 	94.102081 	123.653030 	118.219109 	0.146430 	0.191370 	
984.000000 	694.489990 	141.136246 	94.050003 	121.577843 	116.353806 	0.149171 	0.193090 	
985.000000 	694.830017 	139.108246 	93.881248 	119.524429 	114.414948 	0.151731 	0.195420 	
986.000000 	695.169983 	138.349625 	94.028122 	118.919601 	113.737633 	0.151336 	0.195889 	
987.000000 	695.520020 	136.276505 	93.781250 	116.627274 	111.904625 	0.155703 	0.197039 	
988.000000 	695.859985 	135.034454 	93.832291 	115.562027 	110.934555 	0.155723 	0.196589 	
989.000000 	696.200012 	133.333710 	93.782288 	113.774529 	109.270973 	0.158637 	0.199024 	
990.000000 	696.539978 	132.032379 	93.740623 	112.740059 	108.125679 	0.157962 	0.199753 	
991.000000 	696.880005 	130.951630 	93.878128 	111.491196 	107.414810 	0.160882 	0.198130 	
992.000000 	697.219971 	129.411880 	94.053123 	110.278122 	106.051765 	0.159995 	0.199073 	
993.000000 	697.559998 	127.937836 	93.979164 	108.480492 	104.461594 	0.164974 	0.202725 	
994.000000 	697.900024 	126.367874 	93.571877 	106.919037 	102.822693 	0.167125 	0.206191 	
995.000000 	698.239990 	125.493164 	93.439583 	106.078033 	102.419113 	0.168076 	0.203178 	
996.000000 	698.580017 	123.784164 	93.452087 	104.197914 	100.527267 	0.172247 	0.208111 	
997.000000 	698.919983 	123.549210 	93.538544 	104.285324 	100.464722 	0.169509 	0.206833 	
998.000000 	699.260010 	121.732460 	93.482292 	102.188728 	98.593254 	0.175004 	0.210823 	
999.000000 	699.599976 	120.865211 	93.401039 	101.523956 	97.903305 	0.174381 	0.210696 	
